File: BA_11.chi
D:\DATA\UserData\CuiTian20190403\\CWH\BA\BA_11.tif: 2-theta Scan
2-Theta Angle (Degrees)
Intensity
       1481
 0.0994862  53.092
 0.210026  46.0781
 0.320567  45.3642
 0.431107  40.954
 0.541647  40.102
 0.652188  40.7702
 0.762728  41.0359
 0.873268  40.0997
 0.983808  40.6757
 1.09435  41.2316
 1.20489  41.8552
 1.31543  42.7377
 1.42597  42.8721
 1.53651  44.19
 1.64705  44.9796
 1.75759  46.7465
 1.86813  55.7824
 1.97867  194.676
 2.08921  379.845
 2.19975  633.048
 2.31029  788.132
 2.42083  920.358
 2.53137  1032.49
 2.64191  1129.76
 2.75245  1216.98
 2.86299  1298.82
 2.97353  1372.96
 3.08407  1432.95
 3.19461  1486.22
 3.30515  1535.34
 3.41569  1575.9
 3.52623  1617.09
 3.63677  1653.76
 3.74731  1681.5
 3.85785  1708.19
 3.9684  1727.96
 4.07894  1748.73
 4.18948  1770.09
 4.30002  1777.36
 4.41056  1793.62
 4.5211  1797.07
 4.63164  1804.41
 4.74218  1810.85
 4.85272  1813.02
 4.96326  1820.13
 5.0738  1817.83
 5.18434  1817.91
 5.29488  1814
 5.40542  1814.9
 5.51596  1811.03
 5.6265  1810.73
 5.73704  1807.91
 5.84758  1807.4
 5.95812  1798.7
 6.06866  1801.5
 6.1792  1791.61
 6.28974  1794.67
 6.40028  1797.04
 6.51082  1788.3
 6.62136  1784.24
 6.7319  1779.27
 6.84244  1775.57
 6.95298  1775.16
 7.06352  1770.85
 7.17406  1766.44
 7.2846  1764.02
 7.39514  1757.44
 7.50568  1758.53
 7.61622  1755.17
 7.72676  1752.02
 7.8373  1748.21
 7.94784  1747.1
 8.05838  1744.28
 8.16893  1746.58
 8.27946  1745.17
 8.39001  1746.76
 8.50055  1748.87
 8.61109  1770.44
 8.72163  1757.54
 8.83217  1747.33
 8.94271  1752.74
 9.05325  1772.14
 9.16379  1774.69
 9.27433  1768.18
 9.38487  1745.21
 9.49541  1831.89
 9.60595  1755.91
 9.71649  1757.24
 9.82703  1762.57
 9.93757  1786.83
 10.0481  1796.08
 10.1586  1787.36
 10.2692  1777.75
 10.3797  1777.26
 10.4903  1781.67
 10.6008  1820.34
 10.7113  1809.89
 10.8219  1844.99
 10.9324  1968.28
 11.043  2413.19
 11.1535  2213.71
 11.2641  2002.26
 11.3746  1847.6
 11.4851  1836.25
 11.5957  1854.38
 11.7062  1892.09
 11.8168  1928.27
 11.9273  1878.17
 12.0378  1847.44
 12.1484  1841.22
 12.2589  1851.14
 12.3695  1882.02
 12.48  1910.85
 12.5905  1934.68
 12.7011  2091.9
 12.8116  2760.01
 12.9222  2168.36
 13.0327  1877.45
 13.1432  1852.61
 13.2538  1844.14
 13.3643  1840.43
 13.4749  1837.79
 13.5854  1837.23
 13.6959  1839.48
 13.8065  1845.54
 13.917  1845
 14.0276  1845.56
 14.1381  1850.16
 14.2486  1864
 14.3592  1870.81
 14.4697  1857.86
 14.5803  1854.83
 14.6908  1858.63
 14.8013  1859.73
 14.9119  1861.75
 15.0224  1865.13
 15.133  1868.15
 15.2435  1869.85
 15.354  1874.55
 15.4646  1879.17
 15.5751  1893.46
 15.6857  1900.74
 15.7962  1899.76
 15.9067  1903.18
 16.0173  1900.22
 16.1278  1893.51
 16.2384  1885.79
 16.3489  1882.79
 16.4594  1880.55
 16.57  1876.56
 16.6805  1878.74
 16.7911  1874.42
 16.9016  1873.36
 17.0121  1875.11
 17.1227  1894.34
 17.2332  1929.12
 17.3438  1909.68
 17.4543  1880.82
 17.5648  1868
 17.6754  1858.75
 17.7859  1859.61
 17.8965  1869.85
 18.007  1915.09
 18.1175  1956.53
 18.2281  1918.01
 18.3386  1864.57
 18.4492  1844.06
 18.5597  1834.9
 18.6702  1796.36
 18.7808  1776.47
 18.8913  1762.61
 19.0019  1748.36
 19.1124  1737.86
 19.223  1732.8
 19.3335  1725.47
 19.444  1717.3
 19.5546  1708.53
 19.6651  1703.74
 19.7757  1683.56
 19.8862  1676.29
 19.9967  1670.37
 20.1073  1666.57
 20.2178  1657.69
 20.3284  1652.63
 20.4389  1649.53
 20.5494  1644.39
 20.66  1633.66
 20.7705  1626.37
 20.8811  1626.79
 20.9916  1645.58
 21.1021  1682.57
 21.2127  1721.77
 21.3232  1719.27
 21.4338  1674.64
 21.5443  1632.62
 21.6548  1592.12
 21.7654  1565.08
 21.8759  1553.7
 21.9865  1544.92
 22.097  1540.11
 22.2075  1537.89
 22.3181  1528.92
 22.4286  1515.76
 22.5392  1507.61
 22.6497  1498.96
 22.7602  1489.4
 22.8708  1482.39
 22.9813  1473.88
 23.0919  1467.1
 23.2024  1222.02
 23.3129  1080.91
 23.4235  995.195
 23.534  940.331
 23.6446  910.25
 23.7551  882.71
 23.8656  874.813
 23.9762  874.191
 24.0867  865.66
 24.1973  832.472
 24.3078  776.409
 24.4183  699.805
 24.5289  599.944
 24.6394  434.048
 24.75  114.739
 24.8605  0.0000000E+00
 24.971  0.0000000E+00
 25.0816  0.0000000E+00
 25.1921  0.0000000E+00
 25.3027  0.0000000E+00
 25.4132  0.0000000E+00
 25.5237  0.0000000E+00
 25.6343  0.0000000E+00
 25.7448  0.0000000E+00
 25.8554  0.0000000E+00
 25.9659  0.0000000E+00
 26.0764  0.0000000E+00
 26.187  0.0000000E+00
 26.2975  0.0000000E+00
 26.4081  0.0000000E+00
 26.5186  0.0000000E+00
 26.6291  0.0000000E+00
 26.7397  0.0000000E+00
 26.8502  0.0000000E+00
 26.9608  0.0000000E+00
 27.0713  0.0000000E+00
 27.1818  0.0000000E+00
 27.2924  0.0000000E+00
 27.4029  0.0000000E+00
 27.5135  0.0000000E+00
 27.624  0.0000000E+00
 27.7345  0.0000000E+00
 27.8451  0.0000000E+00
 27.9556  0.0000000E+00
 28.0662  0.0000000E+00
 28.1767  0.0000000E+00
 28.2873  0.0000000E+00
 28.3978  0.0000000E+00
 28.5083  0.0000000E+00
 28.6189  0.0000000E+00
 28.7294  0.0000000E+00
 28.84  0.0000000E+00
 28.9505  0.0000000E+00
 29.061  0.0000000E+00
 29.1716  0.0000000E+00
 29.2821  0.0000000E+00
 29.3927  0.0000000E+00
 29.5032  0.0000000E+00
 29.6137  0.0000000E+00
 29.7243  0.0000000E+00
 29.8348  0.0000000E+00
 29.9454  0.0000000E+00
 30.0559  0.0000000E+00
 30.1664  0.0000000E+00
 30.277  0.0000000E+00
 30.3875  0.0000000E+00
 30.4981  0.0000000E+00
 30.6086  0.0000000E+00
 30.7191  0.0000000E+00
 30.8297  0.0000000E+00
 30.9402  0.0000000E+00
 31.0508  0.0000000E+00
 31.1613  0.0000000E+00
 31.2718  0.0000000E+00
 31.3824  0.0000000E+00
 31.4929  0.0000000E+00
 31.6035  0.0000000E+00
 31.714  0.0000000E+00
 31.8245  0.0000000E+00
 31.9351  0.0000000E+00
 32.0456  0.0000000E+00
 32.1562  0.0000000E+00
 32.2667  0.0000000E+00
 32.3772  0.0000000E+00
 32.4878  0.0000000E+00
 32.5983  0.0000000E+00
 32.7089  0.0000000E+00
 32.731  0.0000000E+00