File: BA_17.chi
D:\DATA\UserData\CuiTian20190403\CWH\BA\BA_17.tif: 2-theta Scan
2-Theta Angle (Degrees)
Intensity
       1481
 0.0994866  42.1655
 0.210027  41.0073
 0.320568  40.0182
 0.431109  41.2959
 0.541649  40.7861
 0.65219  41.7469
 0.762731  41.6783
 0.873271  41.888
 0.983812  42.89
 1.09435  42.9668
 1.20489  44.6578
 1.31543  45.1138
 1.42597  46.385
 1.53652  46.5607
 1.64706  49.8005
 1.7576  52.7626
 1.86814  60.1416
 1.97868  188.191
 2.08922  373.376
 2.19976  623.221
 2.3103  785.192
 2.42084  923.841
 2.53138  1049.83
 2.64192  1159.07
 2.75246  1254.3
 2.863  1343.44
 2.97354  1419.81
 3.08408  1490.76
 3.19463  1546.99
 3.30517  1603.8
 3.41571  1647.32
 3.52625  1695.19
 3.63679  1735.03
 3.74733  1764.4
 3.85787  1793.3
 3.96841  1816.84
 4.07895  1842.85
 4.18949  1858.19
 4.30003  1874.58
 4.41057  1890.9
 4.52111  1894.15
 4.63165  1908.03
 4.74219  1911.84
 4.85274  1915.34
 4.96328  1916.7
 5.07382  1923.7
 5.18436  1924.66
 5.2949  1920.56
 5.40544  1920.24
 5.51598  1919.31
 5.62652  1918.07
 5.73706  1915.06
 5.8476  1914.37
 5.95814  1911.37
 6.06868  1908.08
 6.17922  1909.31
 6.28976  1903.27
 6.4003  1899.89
 6.51085  1898.21
 6.62139  1894.23
 6.73193  1891.84
 6.84247  1885.16
 6.95301  1887.98
 7.06355  1883.57
 7.17409  1877.11
 7.28463  1875.27
 7.39517  1872.73
 7.50571  1871
 7.61625  1869.2
 7.72679  1863.84
 7.83733  1865.26
 7.94787  1868.58
 8.05841  1875.11
 8.16895  1874.45
 8.2795  1867.37
 8.39004  1867.16
 8.50058  1871.38
 8.61112  1865.61
 8.72166  1863.5
 8.8322  1865.85
 8.94274  1869.68
 9.05328  1874.36
 9.16382  1884.09
 9.27436  1891.02
 9.3849  1888.17
 9.49544  1892.41
 9.60598  1898.06
 9.71652  1927.31
 9.82707  1932.85
 9.93761  1950.89
 10.0481  1976.85
 10.1587  2041.24
 10.2692  2179.56
 10.3798  2247.72
 10.4903  2114.8
 10.6008  2065.89
 10.7114  2069.19
 10.8219  2094.89
 10.9325  2113.77
 11.043  2109.64
 11.1536  2119.16
 11.2641  2144.43
 11.3746  2172.19
 11.4852  2139.97
 11.5957  2099.88
 11.7063  2075.33
 11.8168  2074
 11.9273  2088.64
 12.0379  2136.11
 12.1484  2148.22
 12.259  2117.69
 12.3695  2081.92
 12.48  2027.69
 12.5906  1984.98
 12.7011  1971
 12.8117  1969.41
 12.9222  1966.58
 13.0327  1959.97
 13.1433  1958.01
 13.2538  1954.49
 13.3644  1956.63
 13.4749  1960.78
 13.5854  1961.33
 13.696  1962.84
 13.8065  1970.59
 13.9171  1968.81
 14.0276  1970.71
 14.1382  1974.11
 14.2487  1977.12
 14.3592  1978.85
 14.4698  1984.93
 14.5803  1995.8
 14.6909  2002.2
 14.8014  2005.69
 14.9119  2007.87
 15.0225  2004.44
 15.133  2006.58
 15.2436  2006.69
 15.3541  2009.46
 15.4646  2010.98
 15.5752  2014.27
 15.6857  2017.42
 15.7963  2018.19
 15.9068  2029.97
 16.0173  2042.26
 16.1279  2029.08
 16.2384  2029.53
 16.349  2029.94
 16.4595  2034.05
 16.57  2052.2
 16.6806  2105.02
 16.7911  2083.72
 16.9017  2052.44
 17.0122  2048.32
 17.1227  2032.22
 17.2333  2024.82
 17.3438  2017.89
 17.4544  2012.28
 17.5649  2011.43
 17.6755  2012.87
 17.786  2017.64
 17.8965  1998.35
 18.0071  1979.73
 18.1176  1964.16
 18.2282  1947.72
 18.3387  1936.6
 18.4492  1924.78
 18.5598  1917.94
 18.6703  1907.25
 18.7809  1897.98
 18.8914  1893.3
 19.0019  1885.46
 19.1125  1878.09
 19.223  1873.38
 19.3336  1866.84
 19.4441  1867.82
 19.5546  1865.39
 19.6652  1862.75
 19.7757  1859.96
 19.8863  1855.18
 19.9968  1848.25
 20.1073  1834.79
 20.2179  1818.49
 20.3284  1804.56
 20.439  1792.12
 20.5495  1780.74
 20.66  1770.44
 20.7706  1761.33
 20.8811  1747.71
 20.9917  1734.07
 21.1022  1723.18
 21.2128  1714.32
 21.3233  1705.17
 21.4338  1691.95
 21.5444  1681.3
 21.6549  1671.12
 21.7655  1660
 21.876  1652.09
 21.9865  1644.59
 22.0971  1636.21
 22.2076  1628.3
 22.3182  1622.58
 22.4287  1616.73
 22.5392  1611.24
 22.6498  1604.03
 22.7603  1595.64
 22.8709  1587.84
 22.9814  1577.67
 23.0919  1570.76
 23.2025  1307.23
 23.313  1158.07
 23.4236  1066.33
 23.5341  1009.84
 23.6446  976.922
 23.7552  947.893
 23.8657  938.756
 23.9763  934.604
 24.0868  928.594
 24.1974  892.426
 24.3079  832.876
 24.4184  749.558
 24.529  646.31
 24.6395  467.803
 24.7501  123.284
 24.8606  0.0000000E+00
 24.9711  0.0000000E+00
 25.0817  0.0000000E+00
 25.1922  0.0000000E+00
 25.3028  0.0000000E+00
 25.4133  0.0000000E+00
 25.5238  0.0000000E+00
 25.6344  0.0000000E+00
 25.7449  0.0000000E+00
 25.8555  0.0000000E+00
 25.966  0.0000000E+00
 26.0765  0.0000000E+00
 26.1871  0.0000000E+00
 26.2976  0.0000000E+00
 26.4082  0.0000000E+00
 26.5187  0.0000000E+00
 26.6292  0.0000000E+00
 26.7398  0.0000000E+00
 26.8503  0.0000000E+00
 26.9609  0.0000000E+00
 27.0714  0.0000000E+00
 27.182  0.0000000E+00
 27.2925  0.0000000E+00
 27.403  0.0000000E+00
 27.5136  0.0000000E+00
 27.6241  0.0000000E+00
 27.7347  0.0000000E+00
 27.8452  0.0000000E+00
 27.9557  0.0000000E+00
 28.0663  0.0000000E+00
 28.1768  0.0000000E+00
 28.2874  0.0000000E+00
 28.3979  0.0000000E+00
 28.5084  0.0000000E+00
 28.619  0.0000000E+00
 28.7295  0.0000000E+00
 28.8401  0.0000000E+00
 28.9506  0.0000000E+00
 29.0611  0.0000000E+00
 29.1717  0.0000000E+00
 29.2822  0.0000000E+00
 29.3928  0.0000000E+00
 29.5033  0.0000000E+00
 29.6138  0.0000000E+00
 29.7244  0.0000000E+00
 29.8349  0.0000000E+00
 29.9455  0.0000000E+00
 30.056  0.0000000E+00
 30.1665  0.0000000E+00
 30.2771  0.0000000E+00
 30.3876  0.0000000E+00
 30.4982  0.0000000E+00
 30.6087  0.0000000E+00
 30.7192  0.0000000E+00
 30.8298  0.0000000E+00
 30.9403  0.0000000E+00
 31.0509  0.0000000E+00
 31.1614  0.0000000E+00
 31.272  0.0000000E+00
 31.3825  0.0000000E+00
 31.493  0.0000000E+00
 31.6036  0.0000000E+00
 31.7141  0.0000000E+00
 31.8247  0.0000000E+00
 31.9352  0.0000000E+00
 32.0457  0.0000000E+00
 32.1563  0.0000000E+00
 32.2668  0.0000000E+00
 32.3774  0.0000000E+00
 32.4879  0.0000000E+00
 32.5984  0.0000000E+00
 32.709  0.0000000E+00
 32.7311  0.0000000E+00