File: BA_14.chi
D:\DATA\UserData\CuiTian20190403\CWH\BA\BA_14.tif: 2-theta Scan
2-Theta Angle (Degrees)
Intensity
       1481
 0.0994866  41.9502
 0.210027  39.7487
 0.320568  39.8528
 0.431109  40.2586
 0.541649  39.5288
 0.65219  39.9138
 0.762731  39.0643
 0.873271  40.4274
 0.983812  40.481
 1.09435  40.8952
 1.20489  40.6283
 1.31543  41.3894
 1.42597  43.0232
 1.53652  42.7755
 1.64706  44.3409
 1.7576  46.3039
 1.86814  53.5815
 1.97868  178.312
 2.08922  350.949
 2.19976  581.89
 2.3103  725.306
 2.42084  840.077
 2.53138  947.87
 2.64192  1032.29
 2.75246  1114.54
 2.863  1186.36
 2.97354  1249.82
 3.08408  1301.24
 3.19463  1357.18
 3.30517  1393.8
 3.41571  1433.64
 3.52625  1468.48
 3.63679  1501.6
 3.74733  1524.84
 3.85787  1551.08
 3.96841  1571.22
 4.07895  1588.13
 4.18949  1605.1
 4.30003  1611.58
 4.41057  1625.49
 4.52111  1631.44
 4.63165  1634.62
 4.74219  1638.48
 4.85274  1641.24
 4.96328  1642.66
 5.07382  1645.84
 5.18436  1647.53
 5.2949  1641.83
 5.40544  1645.22
 5.51598  1641.09
 5.62652  1637.17
 5.73706  1638.59
 5.8476  1633.63
 5.95814  1631.29
 6.06868  1629.31
 6.17922  1625.08
 6.28976  1625.99
 6.4003  1617.42
 6.51085  1618.44
 6.62139  1615.2
 6.73193  1609.37
 6.84247  1606.88
 6.95301  1603.24
 7.06355  1600.98
 7.17409  1597.32
 7.28463  1595.36
 7.39517  1591.8
 7.50571  1588.51
 7.61625  1586.28
 7.72679  1584.22
 7.83733  1581.96
 7.94787  1582.36
 8.05841  1578.73
 8.16895  1581.71
 8.2795  1582.81
 8.39004  1600.83
 8.50058  1593.03
 8.61112  1582.2
 8.72166  1585.55
 8.8322  1593.3
 8.94274  1616.45
 9.05328  1585.61
 9.16382  1578.96
 9.27436  1576.75
 9.3849  1579.89
 9.49544  1584.35
 9.60598  1593.46
 9.71652  1601.11
 9.82707  1599.86
 9.93761  1605.37
 10.0481  1608.47
 10.1587  1601.46
 10.2692  1607.13
 10.3798  1617.35
 10.4903  1643.91
 10.6008  1735.68
 10.7114  1918.16
 10.8219  1951.05
 10.9325  1842.35
 11.043  1680.79
 11.1536  1654.35
 11.2641  1656.92
 11.3746  1663.2
 11.4852  1676.8
 11.5957  1703.78
 11.7063  1697.79
 11.8168  1679.93
 11.9273  1681.6
 12.0379  1677.27
 12.1484  1692.4
 12.259  1746.92
 12.3695  1911.62
 12.48  2128.08
 12.5906  1801.14
 12.7011  1683.51
 12.8117  1665.85
 12.9222  1658.46
 13.0327  1653
 13.1433  1648.91
 13.2538  1645.65
 13.3644  1647.67
 13.4749  1649.41
 13.5854  1651.36
 13.696  1654.46
 13.8065  1658.8
 13.9171  1666.6
 14.0276  1662.59
 14.1382  1665.95
 14.2487  1664.76
 14.3592  1663.75
 14.4698  1670.85
 14.5803  1669.88
 14.6909  1673.09
 14.8014  1677.15
 14.9119  1677.28
 15.0225  1682.14
 15.133  1684.98
 15.2436  1694.27
 15.3541  1695.84
 15.4646  1696.91
 15.5752  1701.73
 15.6857  1701.77
 15.7963  1699.14
 15.9068  1705.12
 16.0173  1703.31
 16.1279  1700.07
 16.2384  1697.71
 16.349  1697.69
 16.4595  1696.48
 16.57  1694.12
 16.6806  1695.22
 16.7911  1699.14
 16.9017  1727.08
 17.0122  1761.25
 17.1227  1721.2
 17.2333  1695.62
 17.3438  1695.74
 17.4544  1712.61
 17.5649  1747.44
 17.6755  1749.04
 17.786  1695.7
 17.8965  1682.18
 18.0071  1670.92
 18.1176  1653.42
 18.2282  1641.3
 18.3387  1629.18
 18.4492  1619.16
 18.5598  1610.11
 18.6703  1600.98
 18.7809  1593.4
 18.8914  1592.83
 19.0019  1588.38
 19.1125  1572.11
 19.223  1558.55
 19.3336  1549.27
 19.4441  1540.37
 19.5546  1537.72
 19.6652  1530.3
 19.7757  1522.53
 19.8863  1519.34
 19.9968  1512.48
 20.1073  1503.27
 20.2179  1498.06
 20.3284  1497.59
 20.439  1508.48
 20.5495  1529.15
 20.66  1542.29
 20.7706  1527.46
 20.8811  1508.47
 20.9917  1485.05
 21.1022  1455.75
 21.2128  1442.61
 21.3233  1435.09
 21.4338  1428.28
 21.5444  1422.08
 21.6549  1414.47
 21.7655  1405.17
 21.876  1391.43
 21.9865  1377.45
 22.0971  1370.66
 22.2076  1364.39
 22.3182  1361.56
 22.4287  1354.44
 22.5392  1347.37
 22.6498  1335.82
 22.7603  1327.31
 22.8709  1319.38
 22.9814  1316.93
 23.0919  1314.27
 23.2025  1093.95
 23.313  968.873
 23.4236  892.615
 23.5341  839.84
 23.6446  807.321
 23.7552  779.009
 23.8657  769.884
 23.9763  764.218
 24.0868  760.763
 24.1974  736.06
 24.3079  698.399
 24.4184  636.83
 24.529  550.577
 24.6395  410.549
 24.7501  127.397
 24.8606  22.626
 24.9711  21.3098
 25.0817  19.2874
 25.1922  17.8586
 25.3028  17.0925
 25.4133  16.9067
 25.5238  16.9505
 25.6344  17.1571
 25.7449  18.3246
 25.8555  18.9272
 25.966  19.1596
 26.0765  19.4391
 26.1871  20.0477
 26.2976  21.7217
 26.4082  22.7053
 26.5187  22.8256
 26.6292  22.8594
 26.7398  23.5004
 26.8503  23.1392
 26.9609  23.0893
 27.0714  23.8346
 27.182  24.3161
 27.2925  24.2031
 27.403  22.5913
 27.5136  21.8971
 27.6241  24.0012
 27.7347  24.1552
 27.8452  23.6172
 27.9557  24.1032
 28.0663  26.0206
 28.1768  28.6442
 28.2874  31.3018
 28.3979  32.72
 28.5084  32.5
 28.619  31.1792
 28.7295  30.0304
 28.8401  30.3669
 28.9506  32.8962
 29.0611  36.841
 29.1717  41.8029
 29.2822  43.9082
 29.3928  45.1603
 29.5033  44.6753
 29.6138  46.2474
 29.7244  53.098
 29.8349  56.8788
 29.9455  59.6164
 30.056  62.8319
 30.1665  66.238
 30.2771  67.6565
 30.3876  70.6384
 30.4982  75.3833
 30.6087  80.4593
 30.7192  81.1046
 30.8298  84.1228
 30.9403  87.409
 31.0509  97.4768
 31.1614  103.772
 31.272  117.348
 31.3825  116.858
 31.493  120.529
 31.6036  132.1
 31.7141  135.813
 31.8247  135.954
 31.9352  141.932
 32.0457  141.052
 32.1563  130.703
 32.2668  120.713
 32.3774  97.6763
 32.4879  114.614
 32.5984  166.801
 32.709  234.318
 32.7311  266.559