File: BA_15.chi
D:\DATA\UserData\CuiTian20190403\CWH\BA\BA_15.tif: 2-theta Scan
2-Theta Angle (Degrees)
Intensity
       1481
 0.0994866  38.722
 0.210027  39.2596
 0.320568  39.1431
 0.431109  41.0174
 0.541649  39.4941
 0.65219  39.3949
 0.762731  38.8109
 0.873271  40.5303
 0.983812  40.542
 1.09435  39.168
 1.20489  40.8389
 1.31543  41.1438
 1.42597  41.791
 1.53652  42.364
 1.64706  43.6716
 1.7576  45.222
 1.86814  53.048
 1.97868  173.465
 2.08922  338.391
 2.19976  567.138
 2.3103  703.237
 2.42084  819.314
 2.53138  915.536
 2.64192  1004.07
 2.75246  1078.3
 2.863  1151.94
 2.97354  1213.78
 3.08408  1266.67
 3.19463  1311.22
 3.30517  1355.34
 3.41571  1387.7
 3.52625  1426.37
 3.63679  1461.32
 3.74733  1480.5
 3.85787  1502.62
 3.96841  1526.07
 4.07895  1544.1
 4.18949  1552.48
 4.30003  1562.54
 4.41057  1577.75
 4.52111  1586.28
 4.63165  1589.44
 4.74219  1592.84
 4.85274  1592.44
 4.96328  1596.91
 5.07382  1599.89
 5.18436  1598.03
 5.2949  1594.68
 5.40544  1594.25
 5.51598  1590.83
 5.62652  1594.03
 5.73706  1588.89
 5.8476  1584.92
 5.95814  1584.37
 6.06868  1582.37
 6.17922  1579.26
 6.28976  1578.19
 6.4003  1572.73
 6.51085  1568.39
 6.62139  1566.53
 6.73193  1563.1
 6.84247  1559.08
 6.95301  1558.58
 7.06355  1556.94
 7.17409  1551.92
 7.28463  1549.04
 7.39517  1544.24
 7.50571  1543.39
 7.61625  1541.95
 7.72679  1537.58
 7.83733  1538.25
 7.94787  1535.28
 8.05841  1534.15
 8.16895  1536.44
 8.2795  1548.12
 8.39004  1560.05
 8.50058  1537.95
 8.61112  1536.33
 8.72166  1543.67
 8.8322  1562.55
 8.94274  1543.68
 9.05328  1532.37
 9.16382  1532.35
 9.27436  1533.41
 9.3849  1534.85
 9.49544  1539.35
 9.60598  1554.61
 9.71652  1552.89
 9.82707  1551.42
 9.93761  1572.81
 10.0481  1560.65
 10.1587  1560.47
 10.2692  1570.59
 10.3798  1596.47
 10.4903  1671.43
 10.6008  1823.82
 10.7114  1879.58
 10.8219  1769.69
 10.9325  1637.18
 11.043  1610.09
 11.1536  1613.04
 11.2641  1614.08
 11.3746  1618.83
 11.4852  1653.29
 11.5957  1660.14
 11.7063  1636.43
 11.8168  1630.11
 11.9273  1614.74
 12.0379  1618.03
 12.1484  1648.44
 12.259  1725.16
 12.3695  1778.15
 12.48  1681.69
 12.5906  1621.18
 12.7011  1609.92
 12.8117  1604.4
 12.9222  1598.11
 13.0327  1595.4
 13.1433  1593.54
 13.2538  1594.81
 13.3644  1595.29
 13.4749  1600.17
 13.5854  1599.66
 13.696  1606.01
 13.8065  1615.43
 13.9171  1611.7
 14.0276  1610.02
 14.1382  1610.46
 14.2487  1613.42
 14.3592  1615.32
 14.4698  1617.79
 14.5803  1619.52
 14.6909  1623.44
 14.8014  1624.3
 14.9119  1627.54
 15.0225  1633.8
 15.133  1641.92
 15.2436  1645.26
 15.3541  1643.6
 15.4646  1646.23
 15.5752  1646.97
 15.6857  1647.49
 15.7963  1650.39
 15.9068  1655.02
 16.0173  1651.88
 16.1279  1650.45
 16.2384  1649.09
 16.349  1647.34
 16.4595  1646.78
 16.57  1645.59
 16.6806  1651.58
 16.7911  1662.53
 16.9017  1710.33
 17.0122  1685.22
 17.1227  1656.62
 17.2333  1658.73
 17.3438  1693.33
 17.4544  1736.05
 17.5649  1687.09
 17.6755  1649.19
 17.786  1638.17
 17.8965  1622.03
 18.0071  1608.12
 18.1176  1600.25
 18.2282  1588.6
 18.3387  1578.27
 18.4492  1570.91
 18.5598  1564.35
 18.6703  1555.84
 18.7809  1553.81
 18.8914  1544.5
 19.0019  1531.59
 19.1125  1522.23
 19.223  1512.2
 19.3336  1505.93
 19.4441  1500.41
 19.5546  1492.13
 19.6652  1485.94
 19.7757  1481.58
 19.8863  1474.18
 19.9968  1467.9
 20.1073  1465.39
 20.2179  1471.67
 20.3284  1490.39
 20.439  1507.83
 20.5495  1495.1
 20.66  1473.37
 20.7706  1451.81
 20.8811  1431.24
 20.9917  1415.79
 21.1022  1406.63
 21.2128  1403.66
 21.3233  1401.13
 21.4338  1391.04
 21.5444  1383.89
 21.6549  1375.19
 21.7655  1363.6
 21.876  1352.45
 21.9865  1344.46
 22.0971  1339.39
 22.2076  1333.78
 22.3182  1328.52
 22.4287  1321.35
 22.5392  1315.28
 22.6498  1307.5
 22.7603  1304.36
 22.8709  1297.18
 22.9814  1290.94
 23.0919  1285.65
 23.2025  1071.89
 23.313  948.633
 23.4236  872.167
 23.5341  824.638
 23.6446  796.49
 23.7552  774.071
 23.8657  766.447
 23.9763  765.785
 24.0868  758.559
 24.1974  726.467
 24.3079  676.72
 24.4184  609.857
 24.529  525.486
 24.6395  381.249
 24.7501  101.031
 24.8606  0.0000000E+00
 24.9711  0.0000000E+00
 25.0817  0.0000000E+00
 25.1922  0.0000000E+00
 25.3028  0.0000000E+00
 25.4133  0.0000000E+00
 25.5238  0.0000000E+00
 25.6344  0.0000000E+00
 25.7449  0.0000000E+00
 25.8555  0.0000000E+00
 25.966  0.0000000E+00
 26.0765  0.0000000E+00
 26.1871  0.0000000E+00
 26.2976  0.0000000E+00
 26.4082  0.0000000E+00
 26.5187  0.0000000E+00
 26.6292  0.0000000E+00
 26.7398  0.0000000E+00
 26.8503  0.0000000E+00
 26.9609  0.0000000E+00
 27.0714  0.0000000E+00
 27.182  0.0000000E+00
 27.2925  0.0000000E+00
 27.403  0.0000000E+00
 27.5136  0.0000000E+00
 27.6241  0.0000000E+00
 27.7347  0.0000000E+00
 27.8452  0.0000000E+00
 27.9557  0.0000000E+00
 28.0663  0.0000000E+00
 28.1768  0.0000000E+00
 28.2874  0.0000000E+00
 28.3979  0.0000000E+00
 28.5084  0.0000000E+00
 28.619  0.0000000E+00
 28.7295  0.0000000E+00
 28.8401  0.0000000E+00
 28.9506  0.0000000E+00
 29.0611  0.0000000E+00
 29.1717  0.0000000E+00
 29.2822  0.0000000E+00
 29.3928  0.0000000E+00
 29.5033  0.0000000E+00
 29.6138  0.0000000E+00
 29.7244  0.0000000E+00
 29.8349  0.0000000E+00
 29.9455  0.0000000E+00
 30.056  0.0000000E+00
 30.1665  0.0000000E+00
 30.2771  0.0000000E+00
 30.3876  0.0000000E+00
 30.4982  0.0000000E+00
 30.6087  0.0000000E+00
 30.7192  0.0000000E+00
 30.8298  0.0000000E+00
 30.9403  0.0000000E+00
 31.0509  0.0000000E+00
 31.1614  0.0000000E+00
 31.272  0.0000000E+00
 31.3825  0.0000000E+00
 31.493  0.0000000E+00
 31.6036  0.0000000E+00
 31.7141  0.0000000E+00
 31.8247  0.0000000E+00
 31.9352  0.0000000E+00
 32.0457  0.0000000E+00
 32.1563  0.0000000E+00
 32.2668  0.0000000E+00
 32.3774  0.0000000E+00
 32.4879  0.0000000E+00
 32.5984  0.0000000E+00
 32.709  0.0000000E+00
 32.7311  0.0000000E+00