File: BA_1.chi
D:\DATA\UserData\CuiTian20190403\CWH\BA\BA_1.tif: 2-theta Scan
2-Theta Angle (Degrees)
Intensity
       1138
 0.0816343  39.4326
 0.174931  36.2973
 0.268227  36.3993
 0.361523  37.6548
 0.45482  35.8194
 0.548116  38.8796
 0.641412  37.7287
 0.734709  37.569
 0.828005  37.7699
 0.921301  37.6919
 1.0146  37.9892
 1.10789  38.2291
 1.20119  38.4027
 1.29449  38.1871
 1.38778  38.6077
 1.48108  39.9014
 1.57438  40.1372
 1.66767  40.9681
 1.76097  42.2108
 1.85426  44.9184
 1.94756  87.8277
 2.04086  185.794
 2.13415  291.877
 2.22745  430.791
 2.32075  525.348
 2.41404  608.339
 2.50734  682.991
 2.60064  749.138
 2.69393  810.235
 2.78723  865.072
 2.88052  915.374
 2.97382  964.56
 3.06712  1002.8
 3.16041  1041.05
 3.25371  1071.98
 3.34701  1101.43
 3.4403  1131.37
 3.5336  1157.96
 3.62689  1183.14
 3.72019  1203.15
 3.81349  1215.01
 3.90678  1232.91
 4.00008  1246.95
 4.09338  1264.65
 4.18667  1271.34
 4.27997  1282.74
 4.37327  1293.77
 4.46656  1300.15
 4.55986  1302.09
 4.65315  1307.16
 4.74645  1311.08
 4.83975  1314.37
 4.93304  1316.2
 5.02634  1318.95
 5.11964  1317.87
 5.21293  1319.58
 5.30623  1317.26
 5.39952  1317.28
 5.49282  1320.74
 5.58612  1317.79
 5.67941  1315.86
 5.77271  1315.61
 5.86601  1311.83
 5.9593  1308.61
 6.0526  1309.01
 6.1459  1307.4
 6.23919  1307.49
 6.33249  1303.86
 6.42578  1302.9
 6.51908  1304.88
 6.61238  1299.82
 6.70567  1295.8
 6.79897  1295.65
 6.89227  1293.55
 6.98556  1288.04
 7.07886  1287.93
 7.17215  1286.37
 7.26545  1284.53
 7.35875  1280.75
 7.45204  1277.73
 7.54534  1277.98
 7.63864  1277.08
 7.73193  1274.4
 7.82523  1273.55
 7.91853  1272.01
 8.01182  1270.5
 8.10512  1268.01
 8.19841  1268.41
 8.29171  1266.04
 8.38501  1265.89
 8.4783  1265.17
 8.5716  1264.46
 8.6649  1267.75
 8.75819  1274.1
 8.85149  1308.45
 8.94479  1286.79
 9.03808  1272.98
 9.13138  1294.67
 9.22467  1352.87
 9.31797  1307.96
 9.41127  1298.3
 9.50456  1302.81
 9.59786  1440.37
 9.69116  1303.35
 9.78445  1301.1
 9.87775  1305.54
 9.97104  1311.48
 10.0643  1329.94
 10.1576  1345.06
 10.2509  1347.64
 10.3442  1328.62
 10.4375  1323.77
 10.5308  1324.06
 10.6241  1329.85
 10.7174  1369.36
 10.8107  1351.86
 10.904  1342.01
 10.9973  1363.94
 11.0906  1389.39
 11.1839  1492.26
 11.2772  2716.56
 11.3705  1912.69
 11.4638  1474.73
 11.5571  1434.05
 11.6504  1431.59
 11.7437  1443.51
 11.837  1498.89
 11.9303  1581.19
 12.0236  1529.29
 12.1169  1470.81
 12.2102  1467.58
 12.3035  1469.97
 12.3967  1481.73
 12.49  1513.49
 12.5833  1580.49
 12.6766  1558.61
 12.7699  1538.45
 12.8632  1559.56
 12.9565  1736.59
 13.0498  2232.34
 13.1431  2029.58
 13.2364  1580.71
 13.3297  1561.55
 13.423  1565.98
 13.5163  1578.8
 13.6096  1580.42
 13.7029  1580.57
 13.7962  1585.5
 13.8895  1592.2
 13.9828  1596.99
 14.0761  1611.17
 14.1694  1626.22
 14.2627  1633.53
 14.356  1633.38
 14.4493  1643.7
 14.5426  1697.73
 14.6359  1691.68
 14.7292  1670.34
 14.8225  1676.97
 14.9158  1681.67
 15.009  1690.99
 15.1023  1698.38
 15.1956  1706.83
 15.2889  1716.19
 15.3822  1724.98
 15.4755  1737.89
 15.5688  1744.65
 15.6621  1756.51
 15.7554  1769.36
 15.8487  1784.18
 15.942  1797.95
 16.0353  1814.45
 16.1286  1839.83
 16.2219  1846.12
 16.3152  1828.52
 16.4085  1827.96
 16.5018  1834.83
 16.5951  1841.88
 16.6884  1849.4
 16.7817  1858.07
 16.875  1869.95
 16.9683  1882.38
 17.0616  1893.36
 17.1549  1899.62
 17.2482  1911.7
 17.3415  1923.6
 17.4348  1941.85
 17.528  1983.81
 17.6213  2049.76
 17.7146  2076.96
 17.8079  2063
 17.9012  2046.75
 17.9945  2038.43
 18.0878  2034.79
 18.1811  2045.7
 18.2744  2080.14
 18.3677  2502.91
 18.461  3264.51
 18.5543  3215.35
 18.6476  2211.22
 18.7409  2110.4
 18.8342  2085.02
 18.9275  2086.57
 19.0208  2090.27
 19.1141  2084.35
 19.2074  2086.7
 19.3007  2090.71
 19.394  2096.89
 19.4873  2106.89
 19.5806  2127.1
 19.6739  2140.48
 19.7672  2135.23
 19.8605  2140.91
 19.9538  2143.73
 20.047  2146.58
 20.1403  2153.5
 20.2336  2158.33
 20.3269  2166.01
 20.4202  2178.81
 20.5135  2187.3
 20.6068  2227.77
 20.7001  2214.99
 20.7934  2213.81
 20.8867  2206.05
 20.98  2211.89
 21.0733  2219.99
 21.1666  2237.7
 21.2599  2252.05
 21.3532  2278.15
 21.4465  2339.14
 21.5398  2621.23
 21.6331  3012.65
 21.7264  3026.18
 21.8197  2741.91
 21.913  2378.47
 22.0063  2298.47
 22.0996  2281.88
 22.1929  2282.48
 22.2862  2284.8
 22.3795  2291.41
 22.4728  2301.23
 22.5661  2330.96
 22.6593  2728.89
 22.7526  2421.82
 22.8459  2314.94
 22.9392  2302.94
 23.0325  2300.84
 23.1258  2295.41
 23.2191  2295.11
 23.3124  2294.56
 23.4057  2200.27
 23.499  1880.66
 23.5923  1881.22
 23.6856  1697.56
 23.7789  1587.94
 23.8722  1645.79
 23.9655  1711.84
 24.0588  1777.26
 24.1521  1841.64
 24.2454  1906.32
 24.3387  1969.15
 24.432  2094.17
 24.5253  2105.31
 24.6186  2157.32
 24.7119  1967.34
 24.8052  1507.23
 24.8985  1131.44
 24.9918  77.8723
 25.0851  0.0000000E+00
 25.1783  0.0000000E+00
 25.2716  0.0000000E+00
 25.3649  0.0000000E+00
 25.4582  0.0000000E+00
 25.5515  0.0000000E+00
 25.6448  0.0000000E+00
 25.7381  0.0000000E+00
 25.8314  0.0000000E+00
 25.9247  0.0000000E+00
 26.018  0.0000000E+00
 26.1113  0.0000000E+00
 26.2046  0.0000000E+00
 26.2979  0.0000000E+00
 26.3912  0.0000000E+00
 26.4845  0.0000000E+00
 26.5311  0.0000000E+00