File: BA_12.chi
D:\DATA\UserData\CuiTian20190403\\CWH\BA\BA_12.tif: 2-theta Scan
2-Theta Angle (Degrees)
Intensity
       1481
 0.0994862  43.1762
 0.210026  40.6638
 0.320567  40.6837
 0.431107  40.9048
 0.541647  41.1396
 0.652188  39.8602
 0.762728  40.598
 0.873268  39.9121
 0.983808  40.7745
 1.09435  40.0102
 1.20489  41.0457
 1.31543  41.5858
 1.42597  41.9923
 1.53651  42.5513
 1.64705  44.2749
 1.75759  46.7976
 1.86813  55.7004
 1.97867  189.104
 2.08921  372.782
 2.19975  621.012
 2.31029  776.932
 2.42083  905.286
 2.53137  1009.48
 2.64191  1108.32
 2.75245  1195.42
 2.86299  1273.37
 2.97353  1346.46
 3.08407  1404.99
 3.19461  1460.67
 3.30515  1506.54
 3.41569  1541.46
 3.52623  1590.13
 3.63677  1623.14
 3.74731  1647.68
 3.85785  1676.11
 3.9684  1693.36
 4.07894  1716.62
 4.18948  1728.94
 4.30002  1739.62
 4.41056  1757.86
 4.5211  1762.54
 4.63164  1766.88
 4.74218  1772.57
 4.85272  1775.57
 4.96326  1779.74
 5.0738  1780.38
 5.18434  1783.91
 5.29488  1776.31
 5.40542  1777.41
 5.51596  1773.6
 5.6265  1772.75
 5.73704  1768.75
 5.84758  1770.25
 5.95812  1765.36
 6.06866  1761.95
 6.1792  1757.7
 6.28974  1760.63
 6.40028  1755.85
 6.51082  1751.17
 6.62136  1747.2
 6.7319  1743.87
 6.84244  1739.43
 6.95298  1737.9
 7.06352  1731.85
 7.17406  1730.84
 7.2846  1725.74
 7.39514  1723.78
 7.50568  1720.01
 7.61622  1720.3
 7.72676  1716.28
 7.8373  1713.96
 7.94784  1711.33
 8.05838  1710.85
 8.16893  1710.15
 8.27946  1707.47
 8.39001  1714.78
 8.50055  1722.93
 8.61109  1729.4
 8.72163  1713.22
 8.83217  1709.61
 8.94271  1727.43
 9.05325  1730.95
 9.16379  1738.97
 9.27433  1706.89
 9.38487  1707.88
 9.49541  1750.04
 9.60595  1718.52
 9.71649  1714.69
 9.82703  1728.43
 9.93757  1744.72
 10.0481  1743.56
 10.1586  1733.77
 10.2692  1731.52
 10.3797  1735.06
 10.4903  1741.2
 10.6008  1772.7
 10.7113  1779.99
 10.8219  1854.88
 10.9324  2151.29
 11.043  2110.48
 11.1535  1929.71
 11.2641  1798.36
 11.3746  1778.82
 11.4851  1785.98
 11.5957  1804.25
 11.7062  1835.67
 11.8168  1817.75
 11.9273  1795.21
 12.0378  1791.6
 12.1484  1797.76
 12.2589  1819.62
 12.3695  1836.49
 12.48  1868.59
 12.5905  2081.8
 12.7011  2769.69
 12.8116  2085.83
 12.9222  1830.62
 13.0327  1809.46
 13.1432  1802.12
 13.2538  1795.65
 13.3643  1792.91
 13.4749  1791.63
 13.5854  1792.94
 13.6959  1794.35
 13.8065  1797.21
 13.917  1798.05
 14.0276  1802.55
 14.1381  1813.5
 14.2486  1828.74
 14.3592  1812.78
 14.4697  1810.54
 14.5803  1811.1
 14.6908  1815.94
 14.8013  1816.6
 14.9119  1819.32
 15.0224  1823.41
 15.133  1827.58
 15.2435  1826.47
 15.354  1833.28
 15.4646  1841.3
 15.5751  1849.53
 15.6857  1849.54
 15.7962  1850.9
 15.9067  1852.21
 16.0173  1846.18
 16.1278  1842.19
 16.2384  1840.42
 16.3489  1839.28
 16.4594  1839.17
 16.57  1837.05
 16.6805  1836.32
 16.7911  1833.14
 16.9016  1834.33
 17.0121  1850.91
 17.1227  1907.84
 17.2332  1887.45
 17.3438  1848.66
 17.4543  1829.44
 17.5648  1822.52
 17.6754  1821.14
 17.7859  1834.41
 17.8965  1889.63
 18.007  1939.7
 18.1175  1858.74
 18.2281  1812.52
 18.3386  1808.7
 18.4492  1774.95
 18.5597  1753.12
 18.6702  1740.87
 18.7808  1729.52
 18.8913  1719.38
 19.0019  1711.03
 19.1124  1701.21
 19.223  1695.05
 19.3335  1686.99
 19.444  1674.84
 19.5546  1661.37
 19.6651  1650.38
 19.7757  1642.79
 19.8862  1638.16
 19.9967  1632.07
 20.1073  1629.4
 20.2178  1627.54
 20.3284  1618.37
 20.4389  1608.12
 20.5494  1599.67
 20.66  1595.76
 20.7705  1596.05
 20.8811  1611.95
 20.9916  1634.8
 21.1021  1661.64
 21.2127  1652.2
 21.3232  1604.1
 21.4338  1577.75
 21.5443  1545.98
 21.6548  1531.32
 21.7654  1520.33
 21.8759  1513.55
 21.9865  1508.98
 22.097  1501.58
 22.2075  1493.88
 22.3181  1486.44
 22.4286  1476.11
 22.5392  1469.18
 22.6497  1461.35
 22.7602  1455.93
 22.8708  1449.12
 22.9813  1441.09
 23.0919  1434.25
 23.2024  1192.1
 23.3129  1055.41
 23.4235  970.844
 23.534  918.998
 23.6446  889.27
 23.7551  862.362
 23.8656  855.992
 23.9762  854.236
 24.0867  845.66
 24.1973  811.494
 24.3078  758.815
 24.4183  682.083
 24.5289  585.138
 24.6394  423.242
 24.75  111.912
 24.8605  0.0000000E+00
 24.971  0.0000000E+00
 25.0816  0.0000000E+00
 25.1921  0.0000000E+00
 25.3027  0.0000000E+00
 25.4132  0.0000000E+00
 25.5237  0.0000000E+00
 25.6343  0.0000000E+00
 25.7448  0.0000000E+00
 25.8554  0.0000000E+00
 25.9659  0.0000000E+00
 26.0764  0.0000000E+00
 26.187  0.0000000E+00
 26.2975  0.0000000E+00
 26.4081  0.0000000E+00
 26.5186  0.0000000E+00
 26.6291  0.0000000E+00
 26.7397  0.0000000E+00
 26.8502  0.0000000E+00
 26.9608  0.0000000E+00
 27.0713  0.0000000E+00
 27.1818  0.0000000E+00
 27.2924  0.0000000E+00
 27.4029  0.0000000E+00
 27.5135  0.0000000E+00
 27.624  0.0000000E+00
 27.7345  0.0000000E+00
 27.8451  0.0000000E+00
 27.9556  0.0000000E+00
 28.0662  0.0000000E+00
 28.1767  0.0000000E+00
 28.2873  0.0000000E+00
 28.3978  0.0000000E+00
 28.5083  0.0000000E+00
 28.6189  0.0000000E+00
 28.7294  0.0000000E+00
 28.84  0.0000000E+00
 28.9505  0.0000000E+00
 29.061  0.0000000E+00
 29.1716  0.0000000E+00
 29.2821  0.0000000E+00
 29.3927  0.0000000E+00
 29.5032  0.0000000E+00
 29.6137  0.0000000E+00
 29.7243  0.0000000E+00
 29.8348  0.0000000E+00
 29.9454  0.0000000E+00
 30.0559  0.0000000E+00
 30.1664  0.0000000E+00
 30.277  0.0000000E+00
 30.3875  0.0000000E+00
 30.4981  0.0000000E+00
 30.6086  0.0000000E+00
 30.7191  0.0000000E+00
 30.8297  0.0000000E+00
 30.9402  0.0000000E+00
 31.0508  0.0000000E+00
 31.1613  0.0000000E+00
 31.2718  0.0000000E+00
 31.3824  0.0000000E+00
 31.4929  0.0000000E+00
 31.6035  0.0000000E+00
 31.714  0.0000000E+00
 31.8245  0.0000000E+00
 31.9351  0.0000000E+00
 32.0456  0.0000000E+00
 32.1562  0.0000000E+00
 32.2667  0.0000000E+00
 32.3772  0.0000000E+00
 32.4878  0.0000000E+00
 32.5983  0.0000000E+00
 32.7089  0.0000000E+00
 32.731  0.0000000E+00