File: BA_13.chi
D:\DATA\UserData\CuiTian20190403\CWH\BA\BA_13.tif: 2-theta Scan
2-Theta Angle (Degrees)
Intensity
       1481
 0.0994866  41.3729
 0.210027  40.2799
 0.320568  45.0127
 0.431109  39.5721
 0.541649  39.208
 0.65219  40.2755
 0.762731  39.2644
 0.873271  40.75
 0.983812  39.8268
 1.09435  41.0985
 1.20489  40.9125
 1.31543  41.6866
 1.42597  41.9245
 1.53652  43.0248
 1.64706  44.429
 1.7576  45.8767
 1.86814  54.343
 1.97868  179.166
 2.08922  352.309
 2.19976  591.267
 2.3103  732.909
 2.42084  856.622
 2.53138  953.724
 2.64192  1044.9
 2.75246  1126.06
 2.863  1197.22
 2.97354  1264.94
 3.08408  1319.9
 3.19463  1369.31
 3.30517  1414.19
 3.41571  1450.8
 3.52625  1491.72
 3.63679  1523.19
 3.74733  1544.63
 3.85787  1569.78
 3.96841  1592.31
 4.07895  1612.84
 4.18949  1624.72
 4.30003  1635.96
 4.41057  1648.07
 4.52111  1656.09
 4.63165  1658.69
 4.74219  1665.25
 4.85274  1663.94
 4.96328  1667.74
 5.07382  1667.34
 5.18436  1668.55
 5.2949  1665.58
 5.40544  1663.99
 5.51598  1664.12
 5.62652  1660.17
 5.73706  1658.41
 5.8476  1658.73
 5.95814  1652.31
 6.06868  1654.41
 6.17922  1646.71
 6.28976  1647.51
 6.4003  1642.49
 6.51085  1640.27
 6.62139  1636.11
 6.73193  1633.57
 6.84247  1624.89
 6.95301  1626.2
 7.06355  1623.58
 7.17409  1620.51
 7.28463  1614.28
 7.39517  1612.69
 7.50571  1608.68
 7.61625  1608.71
 7.72679  1604.58
 7.83733  1603.89
 7.94787  1600.34
 8.05841  1601.84
 8.16895  1602.28
 8.2795  1599.76
 8.39004  1607.55
 8.50058  1621.11
 8.61112  1608.1
 8.72166  1600.39
 8.8322  1612.88
 8.94274  1624.95
 9.05328  1658.1
 9.16382  1603.75
 9.27436  1597.84
 9.3849  1597.96
 9.49544  1611.66
 9.60598  1609.86
 9.71652  1613.25
 9.82707  1630.96
 9.93761  1627.97
 10.0481  1630.28
 10.1587  1624.27
 10.2692  1624.36
 10.3798  1626.25
 10.4903  1636.38
 10.6008  1667.78
 10.7114  1766.28
 10.8219  2397.36
 10.9325  2110.39
 11.043  1902.43
 11.1536  1695.32
 11.2641  1674.38
 11.3746  1678.61
 11.4852  1697.31
 11.5957  1732.7
 11.7063  1733.27
 11.8168  1703.73
 11.9273  1686.82
 12.0379  1692.39
 12.1484  1708.27
 12.259  1740.3
 12.3695  1778.26
 12.48  2005.65
 12.5906  2631.41
 12.7011  1882.75
 12.8117  1707.14
 12.9222  1687.32
 13.0327  1683.16
 13.1433  1676.96
 13.2538  1673.01
 13.3644  1671.13
 13.4749  1674.5
 13.5854  1678.45
 13.696  1678.03
 13.8065  1679.7
 13.9171  1681.97
 14.0276  1694.71
 14.1382  1698.07
 14.2487  1693.54
 14.3592  1688.88
 14.4698  1690.3
 14.5803  1694.22
 14.6909  1696.38
 14.8014  1697.49
 14.9119  1700.09
 15.0225  1702.99
 15.133  1706.11
 15.2436  1711.79
 15.3541  1722.83
 15.4646  1726.59
 15.5752  1726.02
 15.6857  1729.73
 15.7963  1729.38
 15.9068  1730.02
 16.0173  1724.22
 16.1279  1722.39
 16.2384  1722.73
 16.349  1719.89
 16.4595  1717.98
 16.57  1717.69
 16.6806  1715.12
 16.7911  1718.15
 16.9017  1721.72
 17.0122  1756.04
 17.1227  1767.04
 17.2333  1730.84
 17.3438  1719.42
 17.4544  1712.06
 17.5649  1721.38
 17.6755  1748.6
 17.786  1830.61
 17.8965  1773.44
 18.0071  1713.19
 18.1176  1713.64
 18.2282  1691.14
 18.3387  1662.68
 18.4492  1645.62
 18.5598  1635.84
 18.6703  1626.13
 18.7809  1615.01
 18.8914  1610.8
 19.0019  1603.45
 19.1125  1597.2
 19.223  1592.88
 19.3336  1574.99
 19.4441  1560.29
 19.5546  1552.9
 19.6652  1547.51
 19.7757  1541.1
 19.8863  1535
 19.9968  1533.04
 20.1073  1527.95
 20.2179  1520.15
 20.3284  1509.3
 20.439  1504.38
 20.5495  1505.92
 20.66  1519.44
 20.7706  1550.16
 20.8811  1590.39
 20.9917  1582.41
 21.1022  1533.28
 21.2128  1496.37
 21.3233  1465.47
 21.4338  1449.6
 21.5444  1463.33
 21.6549  1432.52
 21.7655  1427.71
 21.876  1419.27
 21.9865  1411.71
 22.0971  1403.72
 22.2076  1393.21
 22.3182  1385.92
 22.4287  1377.89
 22.5392  1373.8
 22.6498  1368.58
 22.7603  1361.35
 22.8709  1354.18
 22.9814  1344.35
 23.0919  1340.16
 23.2025  1115.22
 23.313  988.215
 23.4236  909.944
 23.5341  861.643
 23.6446  833.222
 23.7552  809.471
 23.8657  801.666
 23.9763  797.72
 24.0868  790.646
 24.1974  759.896
 24.3079  709.137
 24.4184  637.451
 24.529  548.068
 24.6395  396.939
 24.7501  105.072
 24.8606  0.0000000E+00
 24.9711  0.0000000E+00
 25.0817  0.0000000E+00
 25.1922  0.0000000E+00
 25.3028  0.0000000E+00
 25.4133  0.0000000E+00
 25.5238  0.0000000E+00
 25.6344  0.0000000E+00
 25.7449  0.0000000E+00
 25.8555  0.0000000E+00
 25.966  0.0000000E+00
 26.0765  0.0000000E+00
 26.1871  0.0000000E+00
 26.2976  0.0000000E+00
 26.4082  0.0000000E+00
 26.5187  0.0000000E+00
 26.6292  0.0000000E+00
 26.7398  0.0000000E+00
 26.8503  0.0000000E+00
 26.9609  0.0000000E+00
 27.0714  0.0000000E+00
 27.182  0.0000000E+00
 27.2925  0.0000000E+00
 27.403  0.0000000E+00
 27.5136  0.0000000E+00
 27.6241  0.0000000E+00
 27.7347  0.0000000E+00
 27.8452  0.0000000E+00
 27.9557  0.0000000E+00
 28.0663  0.0000000E+00
 28.1768  0.0000000E+00
 28.2874  0.0000000E+00
 28.3979  0.0000000E+00
 28.5084  0.0000000E+00
 28.619  0.0000000E+00
 28.7295  0.0000000E+00
 28.8401  0.0000000E+00
 28.9506  0.0000000E+00
 29.0611  0.0000000E+00
 29.1717  0.0000000E+00
 29.2822  0.0000000E+00
 29.3928  0.0000000E+00
 29.5033  0.0000000E+00
 29.6138  0.0000000E+00
 29.7244  0.0000000E+00
 29.8349  0.0000000E+00
 29.9455  0.0000000E+00
 30.056  0.0000000E+00
 30.1665  0.0000000E+00
 30.2771  0.0000000E+00
 30.3876  0.0000000E+00
 30.4982  0.0000000E+00
 30.6087  0.0000000E+00
 30.7192  0.0000000E+00
 30.8298  0.0000000E+00
 30.9403  0.0000000E+00
 31.0509  0.0000000E+00
 31.1614  0.0000000E+00
 31.272  0.0000000E+00
 31.3825  0.0000000E+00
 31.493  0.0000000E+00
 31.6036  0.0000000E+00
 31.7141  0.0000000E+00
 31.8247  0.0000000E+00
 31.9352  0.0000000E+00
 32.0457  0.0000000E+00
 32.1563  0.0000000E+00
 32.2668  0.0000000E+00
 32.3774  0.0000000E+00
 32.4879  0.0000000E+00
 32.5984  0.0000000E+00
 32.709  0.0000000E+00
 32.7311  0.0000000E+00