File: BA_16.chi
D:\DATA\UserData\CuiTian20190403\CWH\BA\BA_16.tif: 2-theta Scan
2-Theta Angle (Degrees)
Intensity
       1481
 0.0994866  40.3711
 0.210027  42.4228
 0.320568  41.5413
 0.431109  42.6142
 0.541649  41.2924
 0.65219  41.4299
 0.762731  41.8677
 0.873271  42.233
 0.983812  43.5361
 1.09435  42.5028
 1.20489  42.9239
 1.31543  43.955
 1.42597  44.7292
 1.53652  44.218
 1.64706  46.0324
 1.7576  48.5007
 1.86814  57.2138
 1.97868  185.64
 2.08922  371.859
 2.19976  627.738
 2.3103  795.372
 2.42084  938.118
 2.53138  1054.23
 2.64192  1162.9
 2.75246  1259.47
 2.863  1347.73
 2.97354  1429.86
 3.08408  1492.19
 3.19463  1553.66
 3.30517  1601.17
 3.41571  1647.06
 3.52625  1695.28
 3.63679  1734.85
 3.74733  1762.39
 3.85787  1792.12
 3.96841  1816.32
 4.07895  1840.43
 4.18949  1857.3
 4.30003  1872.13
 4.41057  1887.37
 4.52111  1893.64
 4.63165  1904.03
 4.74219  1910.52
 4.85274  1914.92
 4.96328  1916.86
 5.07382  1921.39
 5.18436  1920.3
 5.2949  1919.78
 5.40544  1917.52
 5.51598  1915.26
 5.62652  1913.02
 5.73706  1910.76
 5.8476  1912.54
 5.95814  1904.01
 6.06868  1906.28
 6.17922  1902.88
 6.28976  1903.33
 6.4003  1901.88
 6.51085  1895.63
 6.62139  1891.67
 6.73193  1887.15
 6.84247  1884.56
 6.95301  1881.29
 7.06355  1881.65
 7.17409  1876.86
 7.28463  1870.67
 7.39517  1871.56
 7.50571  1866.04
 7.61625  1865.07
 7.72679  1861.38
 7.83733  1859.53
 7.94787  1862.56
 8.05841  1867.27
 8.16895  1874.92
 8.2795  1880.74
 8.39004  1866.04
 8.50058  1861.76
 8.61112  1866.57
 8.72166  1867.56
 8.8322  1864.74
 8.94274  1859.31
 9.05328  1859.44
 9.16382  1864.21
 9.27436  1868.71
 9.3849  1877.08
 9.49544  1887.46
 9.60598  1886.14
 9.71652  1889.53
 9.82707  1904.74
 9.93761  1908.16
 10.0481  1912.29
 10.1587  1925.08
 10.2692  1967.27
 10.3798  2040.02
 10.4903  2127.04
 10.6008  2099.47
 10.7114  2042.65
 10.8219  1985.77
 10.9325  1974.12
 11.043  1984.48
 11.1536  1993.51
 11.2641  1993.91
 11.3746  2012.33
 11.4852  2034.82
 11.5957  2040.41
 11.7063  2005.28
 11.8168  1988.13
 11.9273  1996.92
 12.0379  2028.37
 12.1484  2091.84
 12.259  2102.22
 12.3695  2038.54
 12.48  2001.23
 12.5906  1978.97
 12.7011  1965.11
 12.8117  1955.78
 12.9222  1951.2
 13.0327  1948.48
 13.1433  1945.44
 13.2538  1946.71
 13.3644  1947.37
 13.4749  1952.51
 13.5854  1957.21
 13.696  1958.95
 13.8065  1959.08
 13.9171  1962.95
 14.0276  1965.57
 14.1382  1967.25
 14.2487  1969.44
 14.3592  1971.62
 14.4698  1974.89
 14.5803  1977.59
 14.6909  1982.81
 14.8014  1987.58
 14.9119  1993.68
 15.0225  2001.24
 15.133  2003.69
 15.2436  2001.99
 15.3541  2001
 15.4646  2003.97
 15.5752  2008.8
 15.6857  2011.85
 15.7963  2013.27
 15.9068  2014.67
 16.0173  2017.31
 16.1279  2016.36
 16.2384  2017.68
 16.349  2014.33
 16.4595  2014.82
 16.57  2022.48
 16.6806  2037.27
 16.7911  2097.38
 16.9017  2085.01
 17.0122  2038.34
 17.1227  2043.3
 17.2333  2048.88
 17.3438  2031.47
 17.4544  2009.61
 17.5649  2000.13
 17.6755  1988.09
 17.786  1976.84
 17.8965  1971.75
 18.0071  1962.3
 18.1176  1949.41
 18.2282  1938.79
 18.3387  1930.57
 18.4492  1920.94
 18.5598  1910.91
 18.6703  1899.92
 18.7809  1887.48
 18.8914  1877.56
 19.0019  1870.17
 19.1125  1858.93
 19.223  1849.31
 19.3336  1842.02
 19.4441  1834.37
 19.5546  1825.73
 19.6652  1818.31
 19.7757  1813.83
 19.8863  1811.59
 19.9968  1813.85
 20.1073  1819.41
 20.2179  1818.51
 20.3284  1809.11
 20.439  1792.63
 20.5495  1778.3
 20.66  1760.82
 20.7706  1744.94
 20.8811  1734.25
 20.9917  1724.74
 21.1022  1717.1
 21.2128  1705.64
 21.3233  1695.32
 21.4338  1686.19
 21.5444  1675.93
 21.6549  1665.77
 21.7655  1654.22
 21.876  1646.26
 21.9865  1638.43
 22.0971  1630.93
 22.2076  1621.96
 22.3182  1615.47
 22.4287  1609.1
 22.5392  1602.2
 22.6498  1594.32
 22.7603  1587.92
 22.8709  1581.44
 22.9814  1572.6
 23.0919  1565.94
 23.2025  1301.42
 23.313  1152.78
 23.4236  1061.19
 23.5341  1003.18
 23.6446  971.235
 23.7552  941.979
 23.8657  935.087
 23.9763  932.604
 24.0868  922.731
 24.1974  885.254
 24.3079  825.546
 24.4184  742.456
 24.529  640.151
 24.6395  463.161
 24.7501  122.175
 24.8606  0.0000000E+00
 24.9711  0.0000000E+00
 25.0817  0.0000000E+00
 25.1922  0.0000000E+00
 25.3028  0.0000000E+00
 25.4133  0.0000000E+00
 25.5238  0.0000000E+00
 25.6344  0.0000000E+00
 25.7449  0.0000000E+00
 25.8555  0.0000000E+00
 25.966  0.0000000E+00
 26.0765  0.0000000E+00
 26.1871  0.0000000E+00
 26.2976  0.0000000E+00
 26.4082  0.0000000E+00
 26.5187  0.0000000E+00
 26.6292  0.0000000E+00
 26.7398  0.0000000E+00
 26.8503  0.0000000E+00
 26.9609  0.0000000E+00
 27.0714  0.0000000E+00
 27.182  0.0000000E+00
 27.2925  0.0000000E+00
 27.403  0.0000000E+00
 27.5136  0.0000000E+00
 27.6241  0.0000000E+00
 27.7347  0.0000000E+00
 27.8452  0.0000000E+00
 27.9557  0.0000000E+00
 28.0663  0.0000000E+00
 28.1768  0.0000000E+00
 28.2874  0.0000000E+00
 28.3979  0.0000000E+00
 28.5084  0.0000000E+00
 28.619  0.0000000E+00
 28.7295  0.0000000E+00
 28.8401  0.0000000E+00
 28.9506  0.0000000E+00
 29.0611  0.0000000E+00
 29.1717  0.0000000E+00
 29.2822  0.0000000E+00
 29.3928  0.0000000E+00
 29.5033  0.0000000E+00
 29.6138  0.0000000E+00
 29.7244  0.0000000E+00
 29.8349  0.0000000E+00
 29.9455  0.0000000E+00
 30.056  0.0000000E+00
 30.1665  0.0000000E+00
 30.2771  0.0000000E+00
 30.3876  0.0000000E+00
 30.4982  0.0000000E+00
 30.6087  0.0000000E+00
 30.7192  0.0000000E+00
 30.8298  0.0000000E+00
 30.9403  0.0000000E+00
 31.0509  0.0000000E+00
 31.1614  0.0000000E+00
 31.272  0.0000000E+00
 31.3825  0.0000000E+00
 31.493  0.0000000E+00
 31.6036  0.0000000E+00
 31.7141  0.0000000E+00
 31.8247  0.0000000E+00
 31.9352  0.0000000E+00
 32.0457  0.0000000E+00
 32.1563  0.0000000E+00
 32.2668  0.0000000E+00
 32.3774  0.0000000E+00
 32.4879  0.0000000E+00
 32.5984  0.0000000E+00
 32.709  0.0000000E+00
 32.7311  0.0000000E+00