File: BA_10.chi
D:\DATA\UserData\CuiTian20190403\\CWH\BA\BA_10.tif: 2-theta Scan
2-Theta Angle (Degrees)
Intensity
       1481
 0.0994862  44.3583
 0.210026  39.4713
 0.320567  40.6056
 0.431107  40.9185
 0.541647  41.896
 0.652188  41.1342
 0.762728  41.2921
 0.873268  41.6653
 0.983808  42.3856
 1.09435  42.9673
 1.20489  43.1982
 1.31543  43.7478
 1.42597  44.998
 1.53651  45.7377
 1.64705  48.6708
 1.75759  49.6219
 1.86813  59.5787
 1.97867  205.118
 2.08921  409.571
 2.19975  681.095
 2.31029  858.93
 2.42083  1012.2
 2.53137  1139.77
 2.64191  1253.25
 2.75245  1354.56
 2.86299  1444.6
 2.97353  1532.79
 3.08407  1608.68
 3.19461  1664.59
 3.30515  1720.75
 3.41569  1769.21
 3.52623  1820.98
 3.63677  1859.49
 3.74731  1895.39
 3.85785  1925.75
 3.9684  1954.7
 4.07894  1977.7
 4.18948  1995.48
 4.30002  2011.28
 4.41056  2025.54
 4.5211  2035.79
 4.63164  2044.03
 4.74218  2053.33
 4.85272  2054.42
 4.96326  2056.54
 5.0738  2057.51
 5.18434  2058.56
 5.29488  2057.69
 5.40542  2059.63
 5.51596  2054.63
 5.6265  2057.1
 5.73704  2051.48
 5.84758  2051.13
 5.95812  2048.43
 6.06866  2045.17
 6.1792  2035.27
 6.28974  2041.16
 6.40028  2044.88
 6.51082  2031.79
 6.62136  2028.71
 6.7319  2026.35
 6.84244  2020.54
 6.95298  2019.88
 7.06352  2012.58
 7.17406  2008.52
 7.2846  2007.43
 7.39514  2001.75
 7.50568  1999.2
 7.61622  1997.47
 7.72676  1995.61
 7.8373  1990.66
 7.94784  1990.2
 8.05838  1988.17
 8.16893  1988.03
 8.27946  1985.24
 8.39001  1986.75
 8.50055  1989.11
 8.61109  2012.94
 8.72163  2017.34
 8.83217  1995.89
 8.94271  1988.96
 9.05325  2015.22
 9.16379  1998.59
 9.27433  1993.05
 9.38487  1988.59
 9.49541  2071.32
 9.60595  1997.97
 9.71649  2003.57
 9.82703  2010
 9.93757  2033.22
 10.0481  2059
 10.1586  2048.61
 10.2692  2015.87
 10.3797  2016.55
 10.4903  2025.03
 10.6008  2036.8
 10.7113  2049.21
 10.8219  2080.11
 10.9324  2312.51
 11.043  3102.13
 11.1535  2936.41
 11.2641  2236.69
 11.3746  2096
 11.4851  2089.18
 11.5957  2114.23
 11.7062  2165.97
 11.8168  2192.61
 11.9273  2130.51
 12.0378  2081.83
 12.1484  2084.1
 12.2589  2097
 12.3695  2119.35
 12.48  2147.61
 12.5905  2151.86
 12.7011  2439.51
 12.8116  2514.11
 12.9222  2284.89
 13.0327  2119.57
 13.1432  2106.75
 13.2538  2107.46
 13.3643  2104.92
 13.4749  2104.08
 13.5854  2099.75
 13.6959  2102.8
 13.8065  2115.14
 13.917  2125.75
 14.0276  2119
 14.1381  2116.49
 14.2486  2131.27
 14.3592  2154.38
 14.4697  2129.19
 14.5803  2123.97
 14.6908  2126.25
 14.8013  2126.89
 14.9119  2129.49
 15.0224  2135.67
 15.133  2138.04
 15.2435  2142.61
 15.354  2144.43
 15.4646  2151.39
 15.5751  2168.47
 15.6857  2183.68
 15.7962  2186.02
 15.9067  2210.78
 16.0173  2249.42
 16.1278  2179.03
 16.2384  2162.4
 16.3489  2157.96
 16.4594  2153.44
 16.57  2156.39
 16.6805  2154.63
 16.7911  2148.7
 16.9016  2149.99
 17.0121  2145.1
 17.1227  2148.37
 17.2332  2179.62
 17.3438  2192.69
 17.4543  2177.01
 17.5648  2155.74
 17.6754  2135.73
 17.7859  2130.05
 17.8965  2132.59
 18.007  2231.18
 18.1175  2504.65
 18.2281  2255.46
 18.3386  2113.02
 18.4492  2076.43
 18.5597  2061.29
 18.6702  2059.95
 18.7808  2043.91
 18.8913  2031.95
 19.0019  2006.66
 19.1124  1991.26
 19.223  1981.02
 19.3335  1975.87
 19.444  1960.74
 19.5546  1951.58
 19.6651  1940.35
 19.7757  1926.06
 19.8862  1918.17
 19.9967  1908.94
 20.1073  1902.22
 20.2178  1896.98
 20.3284  1893.51
 20.4389  1888.13
 20.5494  1873.26
 20.66  1864.08
 20.7705  1859.16
 20.8811  1857.95
 20.9916  1867.36
 21.1021  1899.37
 21.2127  1957.26
 21.3232  2127.98
 21.4338  2053.15
 21.5443  1887.77
 21.6548  1818.66
 21.7654  1792.47
 21.8759  1781.22
 21.9865  1775.88
 22.097  1793.78
 22.2075  1815.97
 22.3181  1768.1
 22.4286  1741.07
 22.5392  1730.18
 22.6497  1722.07
 22.7602  1710.64
 22.8708  1701.1
 22.9813  1692.25
 23.0919  1685.8
 23.2024  1405.61
 23.3129  1242.8
 23.4235  1142.32
 23.534  1078.98
 23.6446  1044.61
 23.7551  1015.14
 23.8656  1004
 23.9762  1001.04
 24.0867  993.164
 24.1973  952.805
 24.3078  887.999
 24.4183  799.436
 24.5289  686.94
 24.6394  496.287
 24.75  130.468
 24.8605  0.0000000E+00
 24.971  0.0000000E+00
 25.0816  0.0000000E+00
 25.1921  0.0000000E+00
 25.3027  0.0000000E+00
 25.4132  0.0000000E+00
 25.5237  0.0000000E+00
 25.6343  0.0000000E+00
 25.7448  0.0000000E+00
 25.8554  0.0000000E+00
 25.9659  0.0000000E+00
 26.0764  0.0000000E+00
 26.187  0.0000000E+00
 26.2975  0.0000000E+00
 26.4081  0.0000000E+00
 26.5186  0.0000000E+00
 26.6291  0.0000000E+00
 26.7397  0.0000000E+00
 26.8502  0.0000000E+00
 26.9608  0.0000000E+00
 27.0713  0.0000000E+00
 27.1818  0.0000000E+00
 27.2924  0.0000000E+00
 27.4029  0.0000000E+00
 27.5135  0.0000000E+00
 27.624  0.0000000E+00
 27.7345  0.0000000E+00
 27.8451  0.0000000E+00
 27.9556  0.0000000E+00
 28.0662  0.0000000E+00
 28.1767  0.0000000E+00
 28.2873  0.0000000E+00
 28.3978  0.0000000E+00
 28.5083  0.0000000E+00
 28.6189  0.0000000E+00
 28.7294  0.0000000E+00
 28.84  0.0000000E+00
 28.9505  0.0000000E+00
 29.061  0.0000000E+00
 29.1716  0.0000000E+00
 29.2821  0.0000000E+00
 29.3927  0.0000000E+00
 29.5032  0.0000000E+00
 29.6137  0.0000000E+00
 29.7243  0.0000000E+00
 29.8348  0.0000000E+00
 29.9454  0.0000000E+00
 30.0559  0.0000000E+00
 30.1664  0.0000000E+00
 30.277  0.0000000E+00
 30.3875  0.0000000E+00
 30.4981  0.0000000E+00
 30.6086  0.0000000E+00
 30.7191  0.0000000E+00
 30.8297  0.0000000E+00
 30.9402  0.0000000E+00
 31.0508  0.0000000E+00
 31.1613  0.0000000E+00
 31.2718  0.0000000E+00
 31.3824  0.0000000E+00
 31.4929  0.0000000E+00
 31.6035  0.0000000E+00
 31.714  0.0000000E+00
 31.8245  0.0000000E+00
 31.9351  0.0000000E+00
 32.0456  0.0000000E+00
 32.1562  0.0000000E+00
 32.2667  0.0000000E+00
 32.3772  0.0000000E+00
 32.4878  0.0000000E+00
 32.5983  0.0000000E+00
 32.7089  0.0000000E+00
 32.731  0.0000000E+00