File: BA_2.chi
D:\DATA\UserData\CuiTian20190403\CWH\BA\BA_2.tif: 2-theta Scan
2-Theta Angle (Degrees)
Intensity
       1128
 0.0817112  40.3839
 0.175095  37.9308
 0.26848  38.7217
 0.361864  37.286
 0.455248  37.7183
 0.548632  37.6201
 0.642016  37.5866
 0.7354  37.4521
 0.828785  36.9815
 0.922169  37.4957
 1.01555  37.5352
 1.10894  37.7549
 1.20232  38.2453
 1.29571  39.3438
 1.38909  38.8852
 1.48247  40.2453
 1.57586  40.4879
 1.66924  40.7605
 1.76263  41.9542
 1.85601  45.4243
 1.94939  89.8751
 2.04278  189.671
 2.13616  297.247
 2.22955  436.604
 2.32293  530.687
 2.41632  611.174
 2.5097  684.816
 2.60308  754.359
 2.69647  812.268
 2.78985  867.82
 2.88324  917.835
 2.97662  964.158
 3.07001  1005.33
 3.16339  1040.86
 3.25677  1077.08
 3.35016  1107.41
 3.44354  1129.73
 3.53693  1159.07
 3.63031  1182.94
 3.72369  1200.29
 3.81708  1219.89
 3.91046  1235.26
 4.00385  1249.8
 4.09723  1259.52
 4.19062  1273.26
 4.284  1279.81
 4.37738  1288.57
 4.47077  1295.96
 4.56415  1300.95
 4.65754  1303.76
 4.75092  1311.16
 4.8443  1315.55
 4.93769  1314.96
 5.03107  1316.13
 5.12446  1315.86
 5.21784  1317.51
 5.31123  1315.75
 5.40461  1315.48
 5.49799  1317.02
 5.59138  1314.43
 5.68476  1312.64
 5.77815  1314.13
 5.87153  1310.24
 5.96491  1310.57
 6.0583  1307.76
 6.15168  1305.66
 6.24507  1303.62
 6.33845  1304.17
 6.43184  1303.47
 6.52522  1303.04
 6.6186  1299.24
 6.71199  1296.76
 6.80537  1293.97
 6.89876  1289.44
 6.99214  1289.11
 7.08552  1285.95
 7.17891  1285.79
 7.27229  1284.16
 7.36568  1281.62
 7.45906  1277.14
 7.55245  1276.63
 7.64583  1277.63
 7.73921  1273.19
 7.8326  1272.44
 7.92598  1272.02
 8.01937  1270.97
 8.11275  1269.87
 8.20613  1266.47
 8.29952  1265.37
 8.3929  1267.4
 8.48629  1269.07
 8.57967  1269.07
 8.67306  1275.06
 8.76644  1295.55
 8.85982  1348.69
 8.95321  1316.24
 9.04659  1286.34
 9.13998  1279.63
 9.23336  1302.48
 9.32675  1286.46
 9.42013  1280.57
 9.51351  1275.66
 9.6069  1390.03
 9.70028  1270.53
 9.79367  1267.4
 9.88705  1267.92
 9.98043  1278.14
 10.0738  1310.21
 10.1672  1320.46
 10.2606  1329.17
 10.354  1317.06
 10.4474  1312.58
 10.5407  1327.59
 10.6341  1341.86
 10.7275  1365.06
 10.8209  1452.46
 10.9143  1378.84
 11.0077  1386.55
 11.101  1414.31
 11.1944  1572.31
 11.2878  2316.27
 11.3812  1657.08
 11.4746  1465.72
 11.568  1435.51
 11.6614  1430.79
 11.7547  1443.8
 11.8481  1491.5
 11.9415  1497.13
 12.0349  1468.75
 12.1283  1456.75
 12.2217  1459.75
 12.315  1469.09
 12.4084  1481.07
 12.5018  1517.35
 12.5952  1566.16
 12.6886  1541.58
 12.782  1544.37
 12.8753  1578.22
 12.9687  1739.23
 13.0621  1978.31
 13.1555  1753.36
 13.2489  1565.08
 13.3423  1557.54
 13.4357  1563.55
 13.529  1577.49
 13.6224  1577.52
 13.7158  1578.79
 13.8092  1580.71
 13.9026  1588.88
 13.996  1595.19
 14.0893  1606.98
 14.1827  1611.79
 14.2761  1623.33
 14.3695  1631.9
 14.4629  1641.42
 14.5563  1672.96
 14.6496  1674.24
 14.743  1668.36
 14.8364  1671.32
 14.9298  1681.58
 15.0232  1687.99
 15.1166  1698.7
 15.2099  1706.47
 15.3033  1714.97
 15.3967  1722.87
 15.4901  1733.55
 15.5835  1748.96
 15.6769  1770.87
 15.7703  1782.81
 15.8636  1791.7
 15.957  1800.52
 16.0504  1805.84
 16.1438  1828.35
 16.2372  1823.76
 16.3306  1819.42
 16.4239  1826.49
 16.5173  1832.24
 16.6107  1839.65
 16.7041  1848.21
 16.7975  1861.31
 16.8909  1873.31
 16.9842  1884.27
 17.0776  1891.44
 17.171  1897.42
 17.2644  1910.35
 17.3578  1927.47
 17.4512  1950.33
 17.5446  1990.86
 17.6379  2082.07
 17.7313  2108.74
 17.8247  2093.2
 17.9181  2066.66
 18.0115  2042.82
 18.1049  2030.29
 18.1982  2035.68
 18.2916  2061.95
 18.385  2169.67
 18.4784  2434.14
 18.5718  2227.77
 18.6652  2091.27
 18.7585  2070.47
 18.8519  2073.68
 18.9453  2080.14
 19.0387  2085.06
 19.1321  2078.97
 19.2255  2079.37
 19.3189  2086.14
 19.4122  2094.81
 19.5056  2101.67
 19.599  2125.21
 19.6924  2124.89
 19.7858  2132.31
 19.8792  2143.39
 19.9725  2147.07
 20.0659  2153.11
 20.1593  2158.1
 20.2527  2158.87
 20.3461  2168.71
 20.4395  2170.17
 20.5328  2184.08
 20.6262  2228.74
 20.7196  2209.84
 20.813  2202.3
 20.9064  2206.11
 20.9998  2206.8
 21.0932  2218.41
 21.1865  2231.07
 21.2799  2235.92
 21.3733  2251.63
 21.4667  2285.6
 21.5601  2406.63
 21.6535  2693.63
 21.7468  2644.2
 21.8402  2370.64
 21.9336  2293.43
 22.027  2278.2
 22.1204  2278.46
 22.2138  2275.85
 22.3071  2278.18
 22.4005  2286.81
 22.4939  2292.31
 22.5873  2309.77
 22.6807  2381.45
 22.7741  2312.78
 22.8675  2295.51
 22.9608  2294.57
 23.0542  2293.53
 23.1476  2293.07
 23.241  2292.04
 23.3344  2290.39
 23.4278  2031.54
 23.5211  1828.03
 23.6145  1742.98
 23.7079  1603.27
 23.8013  1568.87
 23.8947  1631.99
 23.9881  1692.85
 24.0814  1747.94
 24.1748  1809.44
 24.2682  1871.99
 24.3616  1962.76
 24.455  2075.43
 24.5484  2068.07
 24.6418  2050.78
 24.7351  1743.6
 24.8285  1090.95
 24.9219  935.149
 25.0153  0.129273
 25.1087  0.0000000E+00
 25.2021  0.0000000E+00
 25.2954  0.0000000E+00
 25.3888  0.0000000E+00
 25.4822  0.0000000E+00
 25.5756  0.0000000E+00
 25.669  0.0000000E+00
 25.7624  0.0000000E+00
 25.8557  0.0000000E+00
 25.9491  0.0000000E+00
 26.0425  0.0000000E+00
 26.1359  0.0000000E+00
 26.2293  0.0000000E+00
 26.3227  0.0000000E+00