File: BA_3.chi
D:\DATA\UserData\CuiTian20190403\CWH\BA\BA_3.tif: 2-theta Scan
2-Theta Angle (Degrees)
Intensity
       1165
 0.0813703  40.2246
 0.174365  40.3881
 0.267359  38.4044
 0.360354  37.3444
 0.453349  36.8573
 0.546343  36.8463
 0.639338  37.4882
 0.732332  37.3877
 0.825327  37.1539
 0.918322  37.9102
 1.01132  37.7396
 1.10431  37.449
 1.19731  38.091
 1.2903  38.5549
 1.38329  38.684
 1.47629  39.0267
 1.56928  39.2342
 1.66228  41.0786
 1.75527  41.4809
 1.84827  43.8799
 1.94126  81.7586
 2.03426  181.113
 2.12725  279.732
 2.22025  416.268
 2.31324  513.952
 2.40624  592.206
 2.49923  669.018
 2.59222  729.635
 2.68522  790.648
 2.77821  845.341
 2.87121  897.985
 2.9642  940.398
 3.0572  983.54
 3.15019  1022.93
 3.24319  1053.63
 3.33618  1083.76
 3.42918  1110.79
 3.52217  1134.22
 3.61517  1157.22
 3.70816  1173.53
 3.80115  1197.14
 3.89415  1213.03
 3.98714  1223.49
 4.08014  1237.61
 4.17313  1245.49
 4.26613  1254.55
 4.35912  1262.02
 4.45212  1274.24
 4.54511  1278.94
 4.63811  1285.27
 4.7311  1284.08
 4.82409  1285.82
 4.91709  1290.26
 5.01008  1291.04
 5.10308  1289.55
 5.19607  1293.17
 5.28907  1293.33
 5.38206  1291.31
 5.47506  1293.43
 5.56805  1290.52
 5.66105  1289.42
 5.75404  1288.2
 5.84704  1287.65
 5.94003  1287.2
 6.03302  1283.57
 6.12602  1279.71
 6.21901  1279.94
 6.31201  1278.17
 6.405  1277.66
 6.498  1278.59
 6.59099  1273.11
 6.68399  1271.98
 6.77698  1270.55
 6.86998  1265.85
 6.96297  1265.11
 7.05596  1264.17
 7.14896  1261.74
 7.24195  1258.73
 7.33495  1254
 7.42794  1253.52
 7.52094  1251.59
 7.61393  1251.38
 7.70693  1249.83
 7.79992  1246.72
 7.89292  1246.94
 7.98591  1246.6
 8.07891  1244.74
 8.1719  1244.38
 8.26489  1241.01
 8.35789  1241.48
 8.45088  1240.97
 8.54388  1240.44
 8.63687  1242.02
 8.72987  1246.63
 8.82286  1274.99
 8.91586  1276.53
 9.00885  1250.11
 9.10185  1244.85
 9.19484  1269.9
 9.28784  1260.97
 9.38083  1243.78
 9.47382  1240.4
 9.56682  1285.12
 9.65981  1310.68
 9.75281  1244.24
 9.8458  1246.67
 9.9388  1247.85
 10.0318  1268.57
 10.1248  1280.62
 10.2178  1288.01
 10.3108  1270.07
 10.4038  1274.79
 10.4968  1282.22
 10.5898  1286.91
 10.6828  1319.29
 10.7757  1300.18
 10.8687  1298.68
 10.9617  1309.41
 11.0547  1318.63
 11.1477  1349.42
 11.2407  1696.71
 11.3337  1695.88
 11.4267  1387.72
 11.5197  1347.02
 11.6127  1332.53
 11.7057  1338.39
 11.7987  1366.73
 11.8917  1449.97
 11.9847  1443.21
 12.0777  1368.88
 12.1707  1348.36
 12.2637  1348.93
 12.3567  1351.59
 12.4497  1361.37
 12.5426  1405.09
 12.6356  1440.83
 12.7286  1433.11
 12.8216  1446.35
 12.9146  1535.68
 13.0076  1695.19
 13.1006  2019.48
 13.1936  1526.79
 13.2866  1468.41
 13.3796  1467.43
 13.4726  1479.1
 13.5656  1487.65
 13.6586  1489.58
 13.7516  1488.82
 13.8446  1490.62
 13.9376  1501.92
 14.0306  1516.49
 14.1236  1540.34
 14.2165  1570.01
 14.3095  1556.29
 14.4025  1551.42
 14.4955  1567.35
 14.5885  1574.91
 14.6815  1568.99
 14.7745  1572
 14.8675  1577.07
 14.9605  1585.6
 15.0535  1594.15
 15.1465  1601.96
 15.2395  1609.65
 15.3325  1614.2
 15.4255  1624.73
 15.5185  1636.5
 15.6115  1647.57
 15.7045  1660.53
 15.7975  1671.73
 15.8905  1705.41
 15.9834  1704.37
 16.0764  1715.47
 16.1694  1743.32
 16.2624  1735.73
 16.3554  1719.05
 16.4484  1722.96
 16.5414  1731.43
 16.6344  1737.58
 16.7274  1748.35
 16.8204  1756.88
 16.9134  1771.59
 17.0064  1781.27
 17.0994  1787.46
 17.1924  1796.09
 17.2854  1806.11
 17.3784  1820.99
 17.4714  1843.74
 17.5644  1883.98
 17.6573  1934.46
 17.7503  1929.56
 17.8433  1922.99
 17.9363  1920.86
 18.0293  1914.91
 18.1223  1915.92
 18.2153  1932.88
 18.3083  1968.31
 18.4013  2151.49
 18.4943  3171.55
 18.5873  2141.17
 18.6803  1992.24
 18.7733  1964.74
 18.8663  1965.49
 18.9593  1976.74
 19.0523  1974.99
 19.1453  1981.72
 19.2383  1989.18
 19.3313  1986.75
 19.4242  1988.66
 19.5172  1995.15
 19.6102  2017.98
 19.7032  2011.66
 19.7962  2017.9
 19.8892  2025.84
 19.9822  2030.31
 20.0752  2032.48
 20.1682  2037.13
 20.2612  2043.69
 20.3542  2050.46
 20.4472  2059.11
 20.5402  2082.68
 20.6332  2095.33
 20.7262  2085.78
 20.8192  2085.12
 20.9122  2086.38
 21.0052  2093.88
 21.0982  2100.61
 21.1911  2117.98
 21.2841  2129.59
 21.3771  2161.32
 21.4701  2217.94
 21.5631  2357.07
 21.6561  2619.9
 21.7491  2549.2
 21.8421  2293.94
 21.9351  2183.15
 22.0281  2158.89
 22.1211  2155.42
 22.2141  2153.98
 22.3071  2158.18
 22.4001  2165.84
 22.4931  2177.49
 22.5861  2207.75
 22.6791  2275.76
 22.7721  2196.28
 22.865  2176.82
 22.958  2174.64
 23.051  2175.06
 23.144  2173.64
 23.237  2171.59
 23.33  2173.25
 23.423  1954.82
 23.516  1718.67
 23.609  1651.02
 23.702  1526.48
 23.795  1441.52
 23.888  1458.85
 23.981  1507.9
 24.074  1556.46
 24.167  1596.91
 24.26  1639.85
 24.353  1689.33
 24.446  1739.63
 24.5389  1780.51
 24.6319  1770.66
 24.7249  1535.92
 24.8179  1188.36
 24.9109  864.839
 25.0039  42.8344
 25.0969  0.0000000E+00
 25.1899  0.0000000E+00
 25.2829  0.0000000E+00
 25.3759  0.0000000E+00
 25.4689  0.0000000E+00
 25.5619  0.0000000E+00
 25.6549  0.0000000E+00
 25.7479  0.0000000E+00
 25.8409  0.0000000E+00
 25.9339  0.0000000E+00
 26.0269  0.0000000E+00
 26.1199  0.0000000E+00
 26.2129  0.0000000E+00
 26.3058  0.0000000E+00
 26.3988  0.0000000E+00
 26.4918  0.0000000E+00
 26.5848  0.0000000E+00
 26.6778  0.0000000E+00
 26.7708  0.0000000E+00
 26.8638  0.0000000E+00
 26.9568  0.0000000E+00
 27.0498  0.0000000E+00
 27.0731  0.0000000E+00