File: BA_4.chi
D:\DATA\UserData\CuiTian20190403\CWH\BA\BA_4.tif: 2-theta Scan
2-Theta Angle (Degrees)
Intensity
       1203
 0.104102  40.4068
 0.21977  37.1672
 0.335438  37.6905
 0.451107  36.5182
 0.566775  35.9032
 0.682444  36.5366
 0.798112  37.1514
 0.913781  37.5998
 1.02945  37.3234
 1.14512  36.8611
 1.26079  38.0323
 1.37645  38.6934
 1.49212  38.8083
 1.60779  39.4331
 1.72346  40.7369
 1.83913  43.3893
 1.9548  93.7449
 2.07046  216.929
 2.18613  367.79
 2.3018  501.723
 2.41747  596.945
 2.53314  686.502
 2.64881  759.502
 2.76448  831.25
 2.88014  889.985
 2.99581  946.214
 3.11148  995.023
 3.22715  1039.5
 3.34282  1072.72
 3.45849  1101.81
 3.57415  1139.4
 3.68982  1159.13
 3.80549  1183.61
 3.92116  1201.91
 4.03683  1217.91
 4.1525  1231.66
 4.26817  1245.74
 4.38383  1254.66
 4.4995  1263.02
 4.61517  1273.91
 4.73084  1272.37
 4.84651  1278.55
 4.96218  1278.2
 5.07784  1280.09
 5.19351  1283.87
 5.30918  1278.93
 5.42485  1283.67
 5.54052  1281.59
 5.65619  1279.27
 5.77185  1278.16
 5.88752  1277.04
 6.00319  1273.11
 6.11886  1273.12
 6.23453  1272.53
 6.3502  1269.01
 6.46587  1266.42
 6.58153  1264.07
 6.6972  1260.52
 6.81287  1256.02
 6.92854  1253.98
 7.04421  1251.78
 7.15988  1249.88
 7.27554  1246.82
 7.39121  1242.82
 7.50688  1242.84
 7.62255  1240.35
 7.73822  1238.79
 7.85389  1236.81
 7.96955  1236.92
 8.08522  1234.84
 8.20089  1233.47
 8.31656  1232.62
 8.43223  1233.09
 8.5479  1233.89
 8.66357  1237.95
 8.77923  1252.27
 8.8949  1275.81
 9.01057  1248.5
 9.12624  1241.89
 9.24191  1251.39
 9.35758  1239.85
 9.47324  1236.84
 9.58891  1301.39
 9.70458  1238.99
 9.82025  1237.2
 9.93592  1243.41
 10.0516  1254.42
 10.1673  1263.27
 10.2829  1264.4
 10.3986  1248.08
 10.5143  1248.78
 10.6299  1258.31
 10.7456  1294.33
 10.8613  1261.98
 10.9769  1263.51
 11.0926  1281.55
 11.2083  1440.47
 11.3239  1574.01
 11.4396  1315.24
 11.5553  1281.67
 11.6709  1299.23
 11.7866  1323.39
 11.9023  1370.62
 12.018  1331.32
 12.1336  1315.02
 12.2493  1314.94
 12.365  1322.16
 12.4806  1339.17
 12.5963  1382.44
 12.712  1368.51
 12.8276  1377.94
 12.9433  1458.67
 13.059  1684.52
 13.1746  1419.16
 13.2903  1365.87
 13.406  1361.63
 13.5216  1367.5
 13.6373  1365.61
 13.753  1363.05
 13.8686  1365.91
 13.9843  1371.44
 14.1  1379.61
 14.2157  1387.05
 14.3313  1388.86
 14.447  1399.43
 14.5627  1439.91
 14.6783  1440.03
 14.794  1449.22
 14.9097  1458.39
 15.0253  1471.36
 15.141  1482.95
 15.2567  1496.91
 15.3723  1508.65
 15.488  1519.03
 15.6037  1535.67
 15.7193  1551.99
 15.835  1564.82
 15.9507  1577.64
 16.0663  1592.69
 16.182  1615.23
 16.2977  1604.11
 16.4134  1607.58
 16.529  1618.07
 16.6447  1625.16
 16.7604  1638.19
 16.876  1647.01
 16.9917  1660.48
 17.1074  1672.94
 17.223  1687.17
 17.3387  1700.8
 17.4544  1723.76
 17.57  1774.34
 17.6857  1814.18
 17.8014  1807.36
 17.917  1806.5
 18.0327  1799.55
 18.1484  1803.8
 18.264  1824.86
 18.3797  1925.71
 18.4954  2101.9
 18.6111  1869.77
 18.7267  1839.39
 18.8424  1837.28
 18.9581  1844.21
 19.0737  1843.44
 19.1894  1845.95
 19.3051  1856.16
 19.4207  1863.74
 19.5364  1874.87
 19.6521  1884.16
 19.7677  1891.63
 19.8834  1902.32
 19.9991  1910.7
 20.1147  1916.97
 20.2304  1921.42
 20.3461  1928.22
 20.4617  1939.1
 20.5774  1954.29
 20.6931  1955.31
 20.8088  1959.5
 20.9244  1963.58
 21.0401  1976.54
 21.1558  1986.42
 21.2714  1995.46
 21.3871  2018.55
 21.5028  2057.41
 21.6184  2135.7
 21.7341  2165.96
 21.8498  2081.9
 21.9654  2036.92
 22.0811  2030.6
 22.1968  2036.17
 22.3124  2040.62
 22.4281  2047.06
 22.5438  2066.22
 22.6594  2085.19
 22.7751  2059.82
 22.8908  2054.56
 23.0065  2056.36
 23.1221  2056.83
 23.2378  2056.97
 23.3535  2056.52
 23.4691  1706.34
 23.5848  1555.73
 23.7005  1440.53
 23.8161  1360.94
 23.9318  1336.36
 24.0475  1383.47
 24.1631  1423.64
 24.2788  1462.16
 24.3945  1509.92
 24.5101  1545.95
 24.6258  1492.48
 24.7415  1254.81
 24.8571  875.409
 24.9728  351.424
 25.0885  0.0000000E+00
 25.2042  0.0000000E+00
 25.3198  0.0000000E+00
 25.4355  0.0000000E+00
 25.5512  0.0000000E+00
 25.6668  0.0000000E+00
 25.7825  0.0000000E+00
 25.8982  0.0000000E+00
 26.0138  0.0000000E+00
 26.1295  0.0000000E+00
 26.2452  0.0000000E+00
 26.3608  0.0000000E+00
 26.4765  0.0000000E+00
 26.5922  0.0000000E+00
 26.7078  0.0000000E+00
 26.8235  0.0000000E+00
 26.9392  0.0000000E+00
 27.0548  0.0000000E+00
 27.1705  0.0000000E+00
 27.2862  0.0000000E+00
 27.4019  0.0000000E+00
 27.5175  0.0000000E+00
 27.6332  0.0000000E+00
 27.7489  0.0000000E+00
 27.8183  0.0000000E+00