File: BA_7.chi
D:\DATA\UserData\CuiTian20190403\\CWH\BA\BA_7.tif: 2-theta Scan
2-Theta Angle (Degrees)
Intensity
       1481
 0.0994862  42.0204
 0.210026  43.3556
 0.320567  41.6266
 0.431107  41.5955
 0.541647  42.6758
 0.652188  43.5078
 0.762728  42.129
 0.873268  43.8774
 0.983808  44.3354
 1.09435  44.2879
 1.20489  44.4495
 1.31543  45.0764
 1.42597  46.0714
 1.53651  47.3671
 1.64705  48.6898
 1.75759  51.6762
 1.86813  65.0273
 1.97867  234.377
 2.08921  444.263
 2.19975  758.608
 2.31029  933.306
 2.42083  1094.31
 2.53137  1242
 2.64191  1372.17
 2.75245  1485.54
 2.86299  1589.01
 2.97353  1681.78
 3.08407  1761.65
 3.19461  1831.05
 3.30515  1894.79
 3.41569  1949.05
 3.52623  2000.37
 3.63677  2049.96
 3.74731  2085.05
 3.85785  2118.63
 3.9684  2152.69
 4.07894  2177.26
 4.18948  2195.14
 4.30002  2212.78
 4.41056  2233.59
 4.5211  2247.5
 4.63164  2255.22
 4.74218  2264.54
 4.85272  2265.13
 4.96326  2270.48
 5.0738  2268.91
 5.18434  2272.77
 5.29488  2268.58
 5.40542  2272.87
 5.51596  2270.32
 5.6265  2269.36
 5.73704  2267.14
 5.84758  2263.02
 5.95812  2256.03
 6.06866  2257.23
 6.1792  2253.31
 6.28974  2251.47
 6.40028  2249.8
 6.51082  2244.63
 6.62136  2237.91
 6.7319  2234.72
 6.84244  2229.34
 6.95298  2230.66
 7.06352  2224.08
 7.17406  2220.04
 7.2846  2217.37
 7.39514  2212.97
 7.50568  2207.46
 7.61622  2208.41
 7.72676  2204.71
 7.8373  2201.23
 7.94784  2199.07
 8.05838  2195.03
 8.16893  2193.11
 8.27946  2191.78
 8.39001  2197.63
 8.50055  2196.22
 8.61109  2205.93
 8.72163  2258.43
 8.83217  2223.35
 8.94271  2202.12
 9.05325  2228.55
 9.16379  2233.46
 9.27433  2198.57
 9.38487  2200.14
 9.49541  2314.32
 9.60595  2203.27
 9.71649  2201.77
 9.82703  2215.01
 9.93757  2241.26
 10.0481  2285.21
 10.1586  2250.82
 10.2692  2220.98
 10.3797  2222.83
 10.4903  2227.59
 10.6008  2267.09
 10.7113  2247.94
 10.8219  2251.8
 10.9324  2282.3
 11.043  2718.53
 11.1535  4046.58
 11.2641  2442.91
 11.3746  2293.88
 11.4851  2275.3
 11.5957  2286.58
 11.7062  2384.76
 11.8168  2443.53
 11.9273  2305.98
 12.0378  2283.44
 12.1484  2286.4
 12.2589  2297.57
 12.3695  2333.51
 12.48  2371.77
 12.5905  2336.27
 12.7011  2363.06
 12.8116  2528.42
 12.9222  2551.91
 13.0327  2339.65
 13.1432  2327.93
 13.2538  2326.28
 13.3643  2335.77
 13.4749  2332.14
 13.5854  2326.24
 13.6959  2327.01
 13.8065  2339.73
 13.917  2360.83
 14.0276  2385.95
 14.1381  2367.5
 14.2486  2355.06
 14.3592  2395.93
 14.4697  2371.84
 14.5803  2354.82
 14.6908  2358.61
 14.8013  2358.28
 14.9119  2362.64
 15.0224  2365.75
 15.133  2367.45
 15.2435  2374.38
 15.354  2377.54
 15.4646  2382.19
 15.5751  2392.62
 15.6857  2490.17
 15.7962  2408.45
 15.9067  2417.33
 16.0173  2421.41
 16.1278  2400.69
 16.2384  2395.25
 16.3489  2392
 16.4594  2390.48
 16.57  2388.52
 16.6805  2388.92
 16.7911  2387.5
 16.9016  2378.03
 17.0121  2375.3
 17.1227  2373.78
 17.2332  2374.52
 17.3438  2399.96
 17.4543  2430.4
 17.5648  2400.2
 17.6754  2367.19
 17.7859  2353.58
 17.8965  2346.31
 18.007  2347.19
 18.1175  2372.08
 18.2281  2610.66
 18.3386  2396.28
 18.4492  2309.82
 18.5597  2283.68
 18.6702  2275.7
 18.7808  2269.57
 18.8913  2251.37
 19.0019  2239.02
 19.1124  2213.98
 19.223  2198.07
 19.3335  2197.48
 19.444  2186.03
 19.5546  2161.5
 19.6651  2149.49
 19.7757  2135.08
 19.8862  2124.38
 19.9967  2115.78
 20.1073  2106.43
 20.2178  2102.17
 20.3284  2108.73
 20.4389  2099.81
 20.5494  2123.91
 20.66  2061.65
 20.7705  2052.24
 20.8811  2044.9
 20.9916  2043.83
 21.1021  2050.19
 21.2127  2089.6
 21.3232  2249.7
 21.4338  2243.3
 21.5443  2118.26
 21.6548  2004.26
 21.7654  1979.33
 21.8759  1966.18
 21.9865  1958.51
 22.097  1949.83
 22.2075  1943.66
 22.3181  1945.24
 22.4286  1949.15
 22.5392  1918.32
 22.6497  1904.1
 22.7602  1894.36
 22.8708  1884.4
 22.9813  1870.97
 23.0919  1865.63
 23.2024  1553.53
 23.3129  1376.08
 23.4235  1263.4
 23.534  1194.98
 23.6446  1156.22
 23.7551  1121.46
 23.8656  1109.88
 23.9762  1106.48
 24.0867  1096.9
 24.1973  1054.86
 24.3078  984.639
 24.4183  885.617
 24.5289  760.12
 24.6394  549.514
 24.75  144.967
 24.8605  0.0000000E+00
 24.971  0.0000000E+00
 25.0816  0.0000000E+00
 25.1921  0.0000000E+00
 25.3027  0.0000000E+00
 25.4132  0.0000000E+00
 25.5237  0.0000000E+00
 25.6343  0.0000000E+00
 25.7448  0.0000000E+00
 25.8554  0.0000000E+00
 25.9659  0.0000000E+00
 26.0764  0.0000000E+00
 26.187  0.0000000E+00
 26.2975  0.0000000E+00
 26.4081  0.0000000E+00
 26.5186  0.0000000E+00
 26.6291  0.0000000E+00
 26.7397  0.0000000E+00
 26.8502  0.0000000E+00
 26.9608  0.0000000E+00
 27.0713  0.0000000E+00
 27.1818  0.0000000E+00
 27.2924  0.0000000E+00
 27.4029  0.0000000E+00
 27.5135  0.0000000E+00
 27.624  0.0000000E+00
 27.7345  0.0000000E+00
 27.8451  0.0000000E+00
 27.9556  0.0000000E+00
 28.0662  0.0000000E+00
 28.1767  0.0000000E+00
 28.2873  0.0000000E+00
 28.3978  0.0000000E+00
 28.5083  0.0000000E+00
 28.6189  0.0000000E+00
 28.7294  0.0000000E+00
 28.84  0.0000000E+00
 28.9505  0.0000000E+00
 29.061  0.0000000E+00
 29.1716  0.0000000E+00
 29.2821  0.0000000E+00
 29.3927  0.0000000E+00
 29.5032  0.0000000E+00
 29.6137  0.0000000E+00
 29.7243  0.0000000E+00
 29.8348  0.0000000E+00
 29.9454  0.0000000E+00
 30.0559  0.0000000E+00
 30.1664  0.0000000E+00
 30.277  0.0000000E+00
 30.3875  0.0000000E+00
 30.4981  0.0000000E+00
 30.6086  0.0000000E+00
 30.7191  0.0000000E+00
 30.8297  0.0000000E+00
 30.9402  0.0000000E+00
 31.0508  0.0000000E+00
 31.1613  0.0000000E+00
 31.2718  0.0000000E+00
 31.3824  0.0000000E+00
 31.4929  0.0000000E+00
 31.6035  0.0000000E+00
 31.714  0.0000000E+00
 31.8245  0.0000000E+00
 31.9351  0.0000000E+00
 32.0456  0.0000000E+00
 32.1562  0.0000000E+00
 32.2667  0.0000000E+00
 32.3772  0.0000000E+00
 32.4878  0.0000000E+00
 32.5983  0.0000000E+00
 32.7089  0.0000000E+00
 32.731  0.0000000E+00