File: BA_8.chi
D:\DATA\UserData\CuiTian20190403\\CWH\BA\BA_8.tif: 2-theta Scan
2-Theta Angle (Degrees)
Intensity
       1481
 0.0994862  45.7604
 0.210026  42.9025
 0.320567  43.5805
 0.431107  43.3571
 0.541647  43.5568
 0.652188  43.778
 0.762728  43.6138
 0.873268  43.9257
 0.983808  44.4884
 1.09435  44.302
 1.20489  45.7276
 1.31543  46.1958
 1.42597  47.8837
 1.53651  48.5561
 1.64705  50.2501
 1.75759  52.6446
 1.86813  66.9007
 1.97867  237.902
 2.08921  455.635
 2.19975  768.313
 2.31029  954.467
 2.42083  1120.24
 2.53137  1271.55
 2.64191  1401.35
 2.75245  1519.36
 2.86299  1621.49
 2.97353  1717.29
 3.08407  1801.08
 3.19461  1871.49
 3.30515  1938.37
 3.41569  1994.98
 3.52623  2042.1
 3.63677  2092.25
 3.74731  2129.82
 3.85785  2168.81
 3.9684  2198.3
 4.07894  2228.84
 4.18948  2248.21
 4.30002  2263.63
 4.41056  2279.67
 4.5211  2291.17
 4.63164  2303.29
 4.74218  2308.13
 4.85272  2311.86
 4.96326  2319.59
 5.0738  2322.28
 5.18434  2324.57
 5.29488  2318.02
 5.40542  2322.43
 5.51596  2319.83
 5.6265  2318.88
 5.73704  2317.64
 5.84758  2312.88
 5.95812  2311.57
 6.06866  2308.24
 6.1792  2303.13
 6.28974  2299.55
 6.40028  2308.58
 6.51082  2291.7
 6.62136  2288.46
 6.7319  2287.39
 6.84244  2277.54
 6.95298  2275.52
 7.06352  2275.53
 7.17406  2268.78
 7.2846  2264.74
 7.39514  2263.58
 7.50568  2257.88
 7.61622  2253.31
 7.72676  2249.4
 7.8373  2250.64
 7.94784  2249.85
 8.05838  2246.82
 8.16893  2243.04
 8.27946  2243.9
 8.39001  2245.43
 8.50055  2245.53
 8.61109  2261.43
 8.72163  2317.41
 8.83217  2266.23
 8.94271  2249.93
 9.05325  2295.87
 9.16379  2277.68
 9.27433  2248.5
 9.38487  2247
 9.49541  2351.3
 9.60595  2256.54
 9.71649  2250.95
 9.82703  2263.43
 9.93757  2292.08
 10.0481  2323.46
 10.1586  2295.45
 10.2692  2269.33
 10.3797  2270.83
 10.4903  2278.22
 10.6008  2315.42
 10.7113  2300.74
 10.8219  2309.31
 10.9324  2350.56
 11.043  3299.41
 11.1535  3837.04
 11.2641  2451.41
 11.3746  2341.49
 11.4851  2330.06
 11.5957  2345.68
 11.7062  2435.37
 11.8168  2469.73
 11.9273  2352.79
 12.0378  2339.62
 12.1484  2340.19
 12.2589  2351.74
 12.3695  2394.17
 12.48  2419.94
 12.5905  2394.53
 12.7011  2438.58
 12.8116  2547.29
 12.9222  2568.09
 13.0327  2389.68
 13.1432  2382.6
 13.2538  2384.83
 13.3643  2390.51
 13.4749  2388.09
 13.5854  2381.12
 13.6959  2381.88
 13.8065  2396.17
 13.917  2424.99
 14.0276  2442.58
 14.1381  2415.94
 14.2486  2407.9
 14.3592  2439.36
 14.4697  2416.1
 14.5803  2406.15
 14.6908  2408.75
 14.8013  2409.54
 14.9119  2414.33
 15.0224  2417.34
 15.133  2422.18
 15.2435  2425.86
 15.354  2428.57
 15.4646  2434.5
 15.5751  2448.54
 15.6857  2469.27
 15.7962  2462.12
 15.9067  2472.73
 16.0173  2469.04
 16.1278  2451.01
 16.2384  2446.3
 16.3489  2444.02
 16.4594  2443.66
 16.57  2440.68
 16.6805  2440.37
 16.7911  2440.04
 16.9016  2432.76
 17.0121  2429.59
 17.1227  2428.38
 17.2332  2431
 17.3438  2459.09
 17.4543  2473.3
 17.5648  2442.73
 17.6754  2415.09
 17.7859  2405.13
 17.8965  2400.34
 18.007  2401.47
 18.1175  2436.03
 18.2281  2516.59
 18.3386  2397.32
 18.4492  2352.37
 18.5597  2329.63
 18.6702  2329.82
 18.7808  2316.22
 18.8913  2299.41
 19.0019  2289.35
 19.1124  2263.31
 19.223  2246.93
 19.3335  2261.04
 19.444  2229.31
 19.5546  2208.03
 19.6651  2194.37
 19.7757  2181.41
 19.8862  2171.25
 19.9967  2160.96
 20.1073  2154.3
 20.2178  2149.53
 20.3284  2146.18
 20.4389  2163.44
 20.5494  2121.01
 20.66  2104.93
 20.7705  2096.17
 20.8811  2089.89
 20.9916  2089.31
 21.1021  2102.91
 21.2127  2151.33
 21.3232  2261.12
 21.4338  2357.61
 21.5443  2090.4
 21.6548  2038.77
 21.7654  2020.34
 21.8759  2010.88
 21.9865  2001.08
 22.097  1991.3
 22.2075  1984.79
 22.3181  1989.29
 22.4286  1975.49
 22.5392  1955.69
 22.6497  1943.4
 22.7602  1934.14
 22.8708  1925.42
 22.9813  1912.32
 23.0919  1905.36
 23.2024  1588.31
 23.3129  1406.21
 23.4235  1290.86
 23.534  1220.48
 23.6446  1180.56
 23.7551  1144.58
 23.8656  1133.49
 23.9762  1131.13
 24.0867  1121.67
 24.1973  1078.26
 24.3078  1005.89
 24.4183  906.811
 24.5289  778.291
 24.6394  562.233
 24.75  148.208
 24.8605  0.0000000E+00
 24.971  0.0000000E+00
 25.0816  0.0000000E+00
 25.1921  0.0000000E+00
 25.3027  0.0000000E+00
 25.4132  0.0000000E+00
 25.5237  0.0000000E+00
 25.6343  0.0000000E+00
 25.7448  0.0000000E+00
 25.8554  0.0000000E+00
 25.9659  0.0000000E+00
 26.0764  0.0000000E+00
 26.187  0.0000000E+00
 26.2975  0.0000000E+00
 26.4081  0.0000000E+00
 26.5186  0.0000000E+00
 26.6291  0.0000000E+00
 26.7397  0.0000000E+00
 26.8502  0.0000000E+00
 26.9608  0.0000000E+00
 27.0713  0.0000000E+00
 27.1818  0.0000000E+00
 27.2924  0.0000000E+00
 27.4029  0.0000000E+00
 27.5135  0.0000000E+00
 27.624  0.0000000E+00
 27.7345  0.0000000E+00
 27.8451  0.0000000E+00
 27.9556  0.0000000E+00
 28.0662  0.0000000E+00
 28.1767  0.0000000E+00
 28.2873  0.0000000E+00
 28.3978  0.0000000E+00
 28.5083  0.0000000E+00
 28.6189  0.0000000E+00
 28.7294  0.0000000E+00
 28.84  0.0000000E+00
 28.9505  0.0000000E+00
 29.061  0.0000000E+00
 29.1716  0.0000000E+00
 29.2821  0.0000000E+00
 29.3927  0.0000000E+00
 29.5032  0.0000000E+00
 29.6137  0.0000000E+00
 29.7243  0.0000000E+00
 29.8348  0.0000000E+00
 29.9454  0.0000000E+00
 30.0559  0.0000000E+00
 30.1664  0.0000000E+00
 30.277  0.0000000E+00
 30.3875  0.0000000E+00
 30.4981  0.0000000E+00
 30.6086  0.0000000E+00
 30.7191  0.0000000E+00
 30.8297  0.0000000E+00
 30.9402  0.0000000E+00
 31.0508  0.0000000E+00
 31.1613  0.0000000E+00
 31.2718  0.0000000E+00
 31.3824  0.0000000E+00
 31.4929  0.0000000E+00
 31.6035  0.0000000E+00
 31.714  0.0000000E+00
 31.8245  0.0000000E+00
 31.9351  0.0000000E+00
 32.0456  0.0000000E+00
 32.1562  0.0000000E+00
 32.2667  0.0000000E+00
 32.3772  0.0000000E+00
 32.4878  0.0000000E+00
 32.5983  0.0000000E+00
 32.7089  0.0000000E+00
 32.731  0.0000000E+00