File: BA_9.chi
D:\DATA\UserData\CuiTian20190403\\CWH\BA\BA_9.tif: 2-theta Scan
2-Theta Angle (Degrees)
Intensity
       1481
 0.0994862  42.7952
 0.210026  43.2939
 0.320567  41.8074
 0.431107  42.5391
 0.541647  43.3958
 0.652188  42.4914
 0.762728  43.8414
 0.873268  44.0037
 0.983808  44.154
 1.09435  44.0562
 1.20489  46.0775
 1.31543  46.5702
 1.42597  46.8429
 1.53651  47.3037
 1.64705  49.4281
 1.75759  52.44
 1.86813  64.043
 1.97867  223.671
 2.08921  443.9
 2.19975  746.535
 2.31029  940.136
 2.42083  1104.43
 2.53137  1250.24
 2.64191  1375.9
 2.75245  1494.3
 2.86299  1594.82
 2.97353  1693.16
 3.08407  1774.58
 3.19461  1843.08
 3.30515  1905.86
 3.41569  1959.72
 3.52623  2015.43
 3.63677  2060.04
 3.74731  2097.24
 3.85785  2129.45
 3.9684  2164.82
 4.07894  2195.53
 4.18948  2213.99
 4.30002  2230.1
 4.41056  2243.63
 4.5211  2257.82
 4.63164  2266.47
 4.74218  2272.97
 4.85272  2276.7
 4.96326  2282.52
 5.0738  2283.89
 5.18434  2287.43
 5.29488  2282.74
 5.40542  2282.63
 5.51596  2282
 5.6265  2278.76
 5.73704  2282.38
 5.84758  2277.74
 5.95812  2273.46
 6.06866  2270.36
 6.1792  2265.67
 6.28974  2264.89
 6.40028  2274.72
 6.51082  2260.73
 6.62136  2252.23
 6.7319  2250.72
 6.84244  2243
 6.95298  2239.92
 7.06352  2238.05
 7.17406  2229.15
 7.2846  2227.78
 7.39514  2226.5
 7.50568  2219.58
 7.61622  2217.02
 7.72676  2218.9
 7.8373  2212.65
 7.94784  2213.25
 8.05838  2208.69
 8.16893  2208.85
 8.27946  2207.6
 8.39001  2209.36
 8.50055  2211.25
 8.61109  2228.31
 8.72163  2256.87
 8.83217  2224.75
 8.94271  2215.02
 9.05325  2297.32
 9.16379  2223.86
 9.27433  2212.88
 9.38487  2209.15
 9.49541  2319.45
 9.60595  2220.28
 9.71649  2216.71
 9.82703  2228.17
 9.93757  2262.34
 10.0481  2283.51
 10.1586  2268.28
 10.2692  2233.84
 10.3797  2234.23
 10.4903  2245.07
 10.6008  2272.49
 10.7113  2270.36
 10.8219  2284.26
 10.9324  2531.08
 11.043  3684.9
 11.1535  3587.57
 11.2641  2463.85
 11.3746  2307.19
 11.4851  2302.39
 11.5957  2330.65
 11.7062  2417.36
 11.8168  2429.85
 11.9273  2346.78
 12.0378  2303.99
 12.1484  2309.62
 12.2589  2323.75
 12.3695  2376.56
 12.48  2378.85
 12.5905  2369.61
 12.7011  2466.77
 12.8116  2716.16
 12.9222  2456.34
 13.0327  2358.43
 13.1432  2349.81
 13.2538  2351.49
 13.3643  2354.14
 13.4749  2350.41
 13.5854  2343.62
 13.6959  2348.44
 13.8065  2371.14
 13.917  2409.4
 14.0276  2400.64
 14.1381  2374.91
 14.2486  2381.19
 14.3592  2384.51
 14.4697  2369.65
 14.5803  2367.83
 14.6908  2370.33
 14.8013  2374.44
 14.9119  2374.33
 15.0224  2381.29
 15.133  2385.22
 15.2435  2386.59
 15.354  2391.16
 15.4646  2396.87
 15.5751  2414.64
 15.6857  2434.23
 15.7962  2426.53
 15.9067  2433.4
 16.0173  2429.04
 16.1278  2412.13
 16.2384  2410.53
 16.3489  2404.81
 16.4594  2404.92
 16.57  2401.57
 16.6805  2402.38
 16.7911  2398.34
 16.9016  2393.07
 17.0121  2390.5
 17.1227  2393.78
 17.2332  2401.7
 17.3438  2434.83
 17.4543  2434.41
 17.5648  2406.1
 17.6754  2377.25
 17.7859  2367.39
 17.8965  2367.07
 18.007  2373.45
 18.1175  2479.43
 18.2281  2451.57
 18.3386  2349.61
 18.4492  2311.57
 18.5597  2293.45
 18.6702  2291.09
 18.7808  2274.26
 18.8913  2267.18
 19.0019  2249.78
 19.1124  2224.69
 19.223  2214.86
 19.3335  2206.27
 19.444  2184.69
 19.5546  2170.5
 19.6651  2159.55
 19.7757  2147.18
 19.8862  2136.63
 19.9967  2128.74
 20.1073  2119.4
 20.2178  2118.16
 20.3284  2111.53
 20.4389  2153.93
 20.5494  2083.79
 20.66  2071.83
 20.7705  2063.09
 20.8811  2056.68
 20.9916  2062.23
 21.1021  2083.98
 21.2127  2134.17
 21.3232  2264.48
 21.4338  2157.29
 21.5443  2038.29
 21.6548  2003.53
 21.7654  1986.96
 21.8759  1977.24
 21.9865  1967.3
 22.097  1959.05
 22.2075  1958.59
 22.3181  1967.02
 22.4286  1936.14
 22.5392  1922.38
 22.6497  1912.57
 22.7602  1903.15
 22.8708  1895.36
 22.9813  1882.42
 23.0919  1874.57
 23.2024  1562.13
 23.3129  1381.11
 23.4235  1270.97
 23.534  1201.36
 23.6446  1163.3
 23.7551  1127.91
 23.8656  1116.37
 23.9762  1113.34
 24.0867  1105.37
 24.1973  1061.88
 24.3078  991.327
 24.4183  891.054
 24.5289  766.156
 24.6394  552.307
 24.75  145.744
 24.8605  0.0000000E+00
 24.971  0.0000000E+00
 25.0816  0.0000000E+00
 25.1921  0.0000000E+00
 25.3027  0.0000000E+00
 25.4132  0.0000000E+00
 25.5237  0.0000000E+00
 25.6343  0.0000000E+00
 25.7448  0.0000000E+00
 25.8554  0.0000000E+00
 25.9659  0.0000000E+00
 26.0764  0.0000000E+00
 26.187  0.0000000E+00
 26.2975  0.0000000E+00
 26.4081  0.0000000E+00
 26.5186  0.0000000E+00
 26.6291  0.0000000E+00
 26.7397  0.0000000E+00
 26.8502  0.0000000E+00
 26.9608  0.0000000E+00
 27.0713  0.0000000E+00
 27.1818  0.0000000E+00
 27.2924  0.0000000E+00
 27.4029  0.0000000E+00
 27.5135  0.0000000E+00
 27.624  0.0000000E+00
 27.7345  0.0000000E+00
 27.8451  0.0000000E+00
 27.9556  0.0000000E+00
 28.0662  0.0000000E+00
 28.1767  0.0000000E+00
 28.2873  0.0000000E+00
 28.3978  0.0000000E+00
 28.5083  0.0000000E+00
 28.6189  0.0000000E+00
 28.7294  0.0000000E+00
 28.84  0.0000000E+00
 28.9505  0.0000000E+00
 29.061  0.0000000E+00
 29.1716  0.0000000E+00
 29.2821  0.0000000E+00
 29.3927  0.0000000E+00
 29.5032  0.0000000E+00
 29.6137  0.0000000E+00
 29.7243  0.0000000E+00
 29.8348  0.0000000E+00
 29.9454  0.0000000E+00
 30.0559  0.0000000E+00
 30.1664  0.0000000E+00
 30.277  0.0000000E+00
 30.3875  0.0000000E+00
 30.4981  0.0000000E+00
 30.6086  0.0000000E+00
 30.7191  0.0000000E+00
 30.8297  0.0000000E+00
 30.9402  0.0000000E+00
 31.0508  0.0000000E+00
 31.1613  0.0000000E+00
 31.2718  0.0000000E+00
 31.3824  0.0000000E+00
 31.4929  0.0000000E+00
 31.6035  0.0000000E+00
 31.714  0.0000000E+00
 31.8245  0.0000000E+00
 31.9351  0.0000000E+00
 32.0456  0.0000000E+00
 32.1562  0.0000000E+00
 32.2667  0.0000000E+00
 32.3772  0.0000000E+00
 32.4878  0.0000000E+00
 32.5983  0.0000000E+00
 32.7089  0.0000000E+00
 32.731  0.0000000E+00